eeg data - format version 0.2: COUNTER,AF3,F7,F3, FC5, T7, P7, O1, O2,P8, T8, FC6, F4,F8, AF4,GYROX, GYROY, TIMESTAMP, FUNC_ID, FUNC_VALUE, MARKER, SYNC_SIGNAL, Cognitiv Action, Cognitiv Power,
108,4057.44,4200.51,4076.92,3877.95,4337.44,4197.95,4597.95,4582.56,4335.9,3948.21,4278.46,4647.18,4427.69,4668.72,1693,1694,0.102,0,0,0,0,1,0,
109,4061.54,4203.59,4087.18,3882.56,4349.23,4204.1,4608.21,4590.77,4348.21,3956.41,4283.08,4647.18,4435.9,4674.87,1692,1698,0.103,0,0,0,0,1,0,
110,4073.33,4209.74,4093.85,3890.26,4356.41,4206.15,4620.51,4598.97,4353.33,3976.41,4285.13,4655.38,4436.92,4677.44,1693,1698,0.114,0,0,0,0,1,0,
111,4071.28,4208.21,4086.67,3892.82,4343.59,4201.03,4608.72,4591.79,4338.97,3967.18,4275.9,4654.87,4421.54,4671.79,1692,1700,0.121,0,0,0,0,1,0,
112,4064.1,4203.08,4086.15,3885.13,4337.44,4194.36,4598.97,4584.62,4333.33,3947.69,4271.79,4649.74,4417.44,4674.36,1694,1700,0.127,0,0,0,0,1,0,
113,4063.59,4197.44,4087.69,3875.38,4334.36,4192.82,4605.64,4585.64,4338.46,3949.23,4273.85,4650.77,4422.05,4675.38,1691,1702,0.135,0,0,0,0,1,0,
114,4062.05,4193.85,4082.56,3877.44,4325.13,4197.95,4609.23,4586.15,4334.36,3947.69,4266.15,4651.28,4412.82,4667.69,1692,1703,0.142,0,0,0,0,1,0,
115,4059.49,4193.33,4082.05,3881.03,4329.74,4198.97,4607.18,4582.05,4330.77,3939.49,4261.03,4648.72,4404.1,4665.64,1690,1703,0.15,0,0,0,0,1,0,
116,4064.1,4197.95,4085.13,3880.51,4345.13,4191.79,4607.18,4584.62,4336.92,3945.64,4269.74,4649.74,4408.21,4670.77,1690,1706,0.158,0,0,0,0,1,0,
117,4064.62,4203.08,4082.56,3882.56,4346.15,4191.79,4607.18,4586.67,4338.46,3951.79,4272.31,4649.74,4409.23,4671.28,1690,1704,0.166,0,0,0,0,1,0,
118,4057.44,4197.95,4078.97,3882.56,4338.46,4199.49,4606.15,4583.59,4335.38,3941.03,4264.62,4645.13,4401.54,4667.18,1690,1702,0.174,0,0,0,0,1,0,
119,4054.87,4187.18,4075.9,3877.95,4337.44,4197.44,4604.1,4583.59,4340,3939.49,4261.03,4643.59,4394.87,4664.1,1692,1699,0.181,0,0,0,0,1,0,
120,4063.59,4191.28,4077.95,3883.08,4341.54,4194.36,4607.18,4591.79,4346.15,3955.38,4272.82,4647.69,4402.05,4666.67,1693,1696,0.189,0,0,0,0,1,0,
121,4072.31,4201.54,4086.67,3891.79,4343.59,4194.87,4611.28,4596.92,4342.05,3957.44,4282.05,4650.77,4409.74,4673.33,1694,1693,0.197,0,0,0,0,1,0,
122,4070.26,4196.41,4086.15,3885.13,4336.41,4192.31,4607.18,4589.23,4338.46,3949.23,4277.44,4650.26,4402.05,4673.85,1694,1691,0.205,0,0,0,0,1,0,
123,4067.69,4190.77,4082.05,3876.92,4329.74,4191.79,4605.64,4584.62,4341.03,3956.41,4277.95,4653.33,4395.9,4672.31,1696,1689,0.213,0,0,0,0,1,0,
124,4070.77,4194.87,4086.15,3879.49,4334.87,4196.41,4608.72,4586.15,4335.9,3964.62,4285.13,4657.44,4403.08,4673.33,1695,1690,0.221,0,0,0,0,1,0,
125,4072.31,4194.87,4087.69,3882.05,4342.56,4194.87,4608.72,4585.13,4332.31,3959.49,4280.51,4656.92,4400.51,4674.36,1697,1694,0.228,0,0,0,0,1,0,
126,4072.31,4194.36,4085.64,3880.51,4343.59,4186.67,4605.13,4583.59,4334.36,3954.87,4272.82,4655.38,4394.36,4674.87,1696,1697,0.236,0,0,0,0,1,0,
127,4073.85,4202.56,4088.72,3881.54,4342.56,4186.67,4605.13,4583.08,4331.28,3949.74,4280,4656.41,4400,4677.44,1696,1701,0.244,0,0,0,0,1,0,
128,4071.28,4200.51,4091.28,3885.13,4340.51,4192.31,4609.23,4585.64,4333.33,3945.13,4285.13,4656.41,4399.49,4677.44,1697,1699,0.252,0,0,0,0,1,0,
0,4070.77,4189.23,4090.77,3887.69,4335.38,4190.26,4608.21,4590.26,4341.54,3955.38,4274.36,4657.44,4390.26,4673.85,1697,1700,0.26,0,0,0,0,1,0,
1,4075.9,4189.74,4093.33,3885.64,4332.82,4189.74,4604.62,4592.82,4338.46,3965.13,4274.36,4657.44,4393.33,4675.9,1698,1699,0.267,0,0,0,0,1,0,
2,4072.31,4194.87,4088.21,3877.95,4331.28,4193.85,4603.59,4581.03,4330.77,3954.36,4281.54,4652.82,4394.36,4675.38,1699,1697,0.275,0,0,0,0,1,0,
3,4064.1,4188.72,4079.49,3877.95,4328.72,4192.82,4603.08,4570.77,4328.72,3941.03,4272.82,4647.69,4379.49,4666.15,1701,1691,0.283,0,0,0,0,1,0,
4,4063.08,4181.03,4081.54,3885.13,4332.82,4188.21,4604.62,4575.38,4329.23,3939.49,4264.62,4646.67,4372.82,4662.05,1702,1689,0.291,0,0,0,0,1,0,
5,4071.79,4193.33,4090.26,3886.15,4342.05,4188.21,4609.74,4577.95,4329.74,3941.54,4272.31,4649.74,4384.62,4671.79,1706,1685,0.299,0,0,0,0,1,0,
6,4078.46,4207.18,4092.82,3889.23,4348.72,4193.33,4609.74,4570.26,4328.21,3942.05,4278.97,4651.79,4388.21,4676.41,1708,1684,0.307,0,0,0,0,1,0,
7,4071.79,4203.08,4086.67,3889.23,4346.15,4194.87,4602.56,4565.64,4322.56,3938.46,4270.77,4649.23,4373.33,4669.23,1711,1684,0.314,0,0,0,0,1,0,
8,4067.69,4200,4083.08,3886.15,4338.97,4191.79,4600,4568.72,4324.62,3934.87,4265.64,4648.72,4365.13,4666.15,1712,1684,0.322,0,0,0,0,1,0,
9,4073.33,4202.56,4086.67,3889.23,4335.38,4189.74,4601.54,4570.26,4328.21,3937.95,4271.79,4649.74,4370.77,4670.26,1712,1689,0.33,0,0,0,0,1,0,
10,4072.31,4197.95,4088.72,3886.15,4326.67,4191.79,4601.54,4567.69,4325.13,3939.49,4270.77,4649.74,4366.67,4670.77,1714,1693,0.338,0,0,0,0,1,0,
11,4067.69,4200.51,4088.72,3880,4320,4191.28,4605.64,4572.82,4329.23,3939.49,4269.23,4652.82,4363.59,4670.26,1713,1699,0.346,0,0,0,0,1,0,
12,4073.85,4212.31,4092.82,3892.82,4328.72,4188.21,4612.82,4585.64,4341.54,3950.26,4277.95,4660,4374.36,4674.87,1715,1701,0.353,0,0,0,0,1,0,
13,4076.41,4203.08,4092.82,3899.49,4333.85,4187.18,4613.33,4591.28,4349.23,3964.1,4285.64,4657.44,4376.41,4675.9,1713,1703,0.361,0,0,0,0,1,0,
14,4066.67,4184.1,4084.62,3877.95,4325.64,4190.26,4608.21,4586.67,4347.69,3965.13,4276.41,4649.74,4367.69,4669.23,1714,1706,0.369,0,0,0,0,1,0,
15,4061.54,4185.13,4077.95,3869.74,4322.05,4193.85,4607.18,4584.1,4339.49,3953.33,4265.13,4648.21,4365.64,4666.15,1713,1705,0.377,0,0,0,0,1,0,
16,4062.56,4189.23,4076.92,3880,4320.51,4196.41,4605.64,4580.51,4330.26,3941.03,4266.15,4649.23,4358.97,4666.15,1712,1705,0.385,0,0,0,0,1,0,
17,4058.97,4185.13,4077.44,3877.44,4316.92,4192.82,4602.56,4569.23,4327.69,3937.44,4265.13,4646.15,4347.18,4661.03,1711,1704,0.393,0,0,0,0,1,0,
18,4056.92,4184.62,4076.41,3875.38,4321.54,4189.74,4605.13,4560.51,4329.74,3942.05,4255.38,4645.64,4345.64,4659.49,1710,1703,0.4,0,0,0,0,1,0,
19,4060.51,4186.67,4078.46,3884.62,4321.54,4192.31,4603.08,4557.95,4327.69,3941.54,4251.79,4647.18,4349.74,4663.08,1707,1702,0.408,0,0,0,0,1,0,
20,4064.1,4186.67,4082.56,3886.15,4321.03,4195.38,4598.46,4554.36,4329.74,3935.38,4263.59,4647.18,4349.23,4663.59,1704,1706,0.416,0,0,0,0,1,0,
21,4064.1,4188.72,4084.1,3880.51,4330.26,4189.74,4601.54,4560,4340,3942.56,4269.23,4648.21,4348.21,4664.1,1702,1707,0.424,0,0,0,0,1,0,
22,4061.54,4185.64,4085.13,3885.13,4322.05,4183.08,4601.54,4566.15,4340,3952.31,4261.54,4649.23,4345.64,4664.62,1698,1711,0.432,0,0,0,0,1,0,
23,4060.51,4181.54,4088.72,3889.23,4305.13,4184.62,4598.97,4558.46,4334.36,3950.26,4262.05,4648.21,4345.13,4665.13,1695,1715,0.439,0,0,0,0,1,0,
24,4063.08,4183.59,4091.28,3881.03,4317.44,4188.72,4601.54,4557.95,4337.44,3952.82,4266.15,4652.82,4350.26,4668.21,1692,1716,0.447,0,0,0,0,1,0,
25,4063.08,4180,4087.18,3875.9,4334.87,4193.33,4608.21,4568.21,4336.92,3958.46,4264.62,4657.44,4349.74,4669.74,1689,1718,0.455,0,0,0,0,1,0,
26,4060,4174.87,4084.1,3882.56,4325.64,4192.31,4607.18,4565.13,4332.31,3953.85,4264.62,4654.36,4345.64,4665.13,1687,1719,0.463,0,0,0,0,1,0,
27,4061.54,4181.03,4085.64,3885.64,4315.38,4183.59,4601.03,4553.33,4331.28,3943.59,4263.59,4650.77,4339.49,4662.56,1686,1720,0.471,0,0,0,0,1,0,
28,4061.03,4181.54,4084.1,3882.05,4316.92,4184.1,4601.03,4554.87,4327.69,3934.87,4257.44,4650.26,4334.87,4664.1,1685,1719,0.479,0,0,0,0,1,0,
29,4054.87,4172.82,4077.44,3876.41,4319.49,4187.69,4602.56,4555.9,4325.13,3932.82,4250.77,4643.08,4334.36,4659.49,1685,1717,0.486,0,0,0,0,1,0,
30,4052.31,4170.26,4072.31,3873.85,4325.13,4186.67,4600.51,4551.28,4329.23,3937.95,4243.08,4636.92,4330.77,4653.33,1685,1713,0.494,0,0,0,0,1,0,
31,4055.9,4172.82,4076.41,3880,4323.59,4186.15,4603.08,4553.33,4330.26,3941.03,4244.1,4642.56,4330.77,4657.44,1685,1712,0.502,0,0,0,0,1,0,
32,4056.92,4174.87,4079.49,3881.54,4314.36,4185.13,4609.23,4560.51,4329.74,3942.56,4255.9,4648.21,4338.46,4660.51,1683,1714,0.51,0,0,0,0,1,0,
33,4057.95,4180,4079.49,3878.46,4318.97,4183.08,4608.72,4566.15,4338.97,3947.69,4256.92,4648.21,4339.49,4657.95,1682,1719,0.518,0,0,0,0,1,0,
34,4061.54,4185.13,4083.08,3881.03,4329.74,4190.26,4610.77,4569.23,4345.13,3949.74,4252.31,4648.72,4335.38,4657.95,1681,1724,0.525,0,0,0,0,1,0,
35,4058.97,4179.49,4083.59,3881.54,4324.1,4194.36,4613.33,4564.62,4336.92,3949.23,4259.49,4648.21,4343.08,4663.08,1680,1727,0.533,0,0,0,0,1,0,
36,4057.95,4174.87,4080,3878.46,4319.49,4186.67,4609.23,4559.49,4333.33,3954.36,4267.69,4647.69,4351.28,4664.62,1678,1726,0.541,0,0,0,0,1,0,
37,4061.54,4182.05,4084.62,3879.49,4333.33,4187.69,4611.79,4565.64,4340,3960,4265.64,4649.74,4346.15,4664.62,1678,1724,0.549,0,0,0,0,1,0,
38,4059.49,4184.1,4089.23,3882.05,4340.51,4195.9,4615.9,4569.23,4337.95,3955.9,4258.46,4649.74,4338.97,4662.56,1678,1719,0.557,0,0,0,0,1,0,
39,4056.41,4175.9,4082.56,3879.49,4332.82,4191.79,4607.69,4564.1,4332.31,3946.67,4255.38,4646.67,4336.41,4658.46,1677,1716,0.565,0,0,0,0,1,0,
40,4062.05,4176.41,4081.54,3880,4331.28,4183.59,4602.05,4563.59,4337.95,3947.69,4264.62,4650.26,4342.05,4662.56,1679,1708,0.572,0,0,0,0,1,0,
41,4069.74,4187.69,4090.26,3883.08,4338.97,4183.59,4604.62,4568.21,4341.03,3956.41,4274.87,4656.41,4352.82,4668.72,1678,1703,0.58,0,0,0,0,1,0,
42,4070.77,4188.72,4091.79,3889.74,4343.59,4190.77,4605.13,4570.77,4336.92,3960,4272.31,4655.9,4354.36,4669.23,1681,1697,0.588,0,0,0,0,1,0,
43,4070.26,4183.08,4089.23,3891.79,4345.64,4192.82,4605.13,4566.67,4337.44,3959.49,4268.72,4654.36,4349.23,4668.21,1681,1691,0.596,0,0,0,0,1,0,
44,4069.74,4186.67,4089.74,3886.67,4346.67,4190.77,4606.67,4561.54,4341.54,3959.49,4271.79,4656.41,4352.31,4667.18,1683,1686,0.604,0,0,0,0,1,0,
45,4072.31,4196.92,4090.26,3889.23,4346.67,4193.85,4606.67,4564.62,4345.13,3957.44,4276.92,4657.44,4361.54,4668.72,1685,1684,0.612,0,0,0,0,1,0,
46,4075.9,4201.03,4091.79,3891.79,4343.59,4195.9,4608.72,4566.15,4341.03,3957.44,4279.49,4655.9,4362.05,4671.28,1687,1683,0.619,0,0,0,0,1,0,
47,4076.41,4195.38,4090.77,3887.18,4339.49,4187.69,4602.56,4557.95,4330.26,3958.46,4277.44,4654.36,4358.46,4670.26,1688,1683,0.627,0,0,0,0,1,0,
48,4078.46,4194.87,4091.28,3888.72,4340.51,4184.1,4596.41,4560,4332.82,3955.38,4286.15,4658.46,4367.69,4672.31,1689,1686,0.635,0,0,0,0,1,0,
49,4084.62,4203.08,4098.97,3896.41,4346.15,4188.21,4604.62,4574.36,4346.67,3964.1,4294.36,4665.13,4376.92,4682.05,1690,1687,0.643,0,0,0,0,1,0,
50,4085.13,4203.08,4101.03,3895.38,4337.44,4185.64,4609.23,4573.85,4346.15,3976.41,4282.56,4663.08,4371.79,4682.05,1692,1691,0.651,0,0,0,0,1,0,
51,4073.85,4188.72,4089.23,3887.18,4320.51,4185.13,4601.03,4560.51,4333.33,3960.51,4270.77,4650.26,4362.56,4668.21,1693,1692,0.658,0,0,0,0,1,0,
52,4066.15,4184.62,4082.56,3879.49,4329.23,4188.72,4602.56,4558.46,4334.36,3945.13,4276.41,4647.69,4359.49,4661.54,1693,1694,0.666,0,0,0,0,1,0,
53,4072.31,4193.85,4089.74,3880.51,4344.1,4186.67,4612.82,4566.67,4344.1,3960.51,4281.03,4655.38,4360,4667.18,1694,1696,0.674,0,0,0,0,1,0,
54,4077.95,4195.38,4095.38,3893.33,4338.46,4186.15,4611.79,4571.28,4343.08,3970.77,4278.97,4657.95,4364.62,4673.85,1694,1695,0.682,0,0,0,0,1,0,
55,4078.97,4188.72,4096.92,3896.41,4334.36,4190.77,4606.67,4567.69,4336.92,3959.49,4285.64,4658.46,4365.64,4675.9,1695,1697,0.69,0,0,0,0,1,0,
56,4075.9,4182.05,4097.95,3887.69,4334.87,4187.69,4604.1,4563.08,4332.82,3944.62,4290.26,4656.41,4354.36,4672.31,1696,1697,0.697,0,0,0,0,1,0,
57,4070.77,4178.97,4093.33,3878.46,4326.15,4181.03,4601.54,4558.97,4329.74,3933.85,4285.64,4651.79,4347.18,4667.18,1695,1699,0.705,0,0,0,0,1,0,
58,4074.87,4184.62,4095.9,3886.15,4330.77,4189.74,4608.21,4563.59,4339.49,3948.72,4294.87,4657.44,4360.51,4672.31,1695,1698,0.713,0,0,0,0,1,0,
59,4080.51,4180,4098.46,3896.92,4337.95,4192.82,4607.69,4566.15,4347.69,3968.72,4307.18,4659.49,4365.64,4672.31,1694,1699,0.721,0,0,0,0,1,0,
60,4058.46,4153.85,4075.38,3875.9,4312.31,4172.82,4585.64,4549.23,4327.69,3944.1,4289.74,4640,4338.97,4650.26,1693,1698,0.729,0,0,0,0,1,0,
61,4091.79,4201.03,4110.77,3899.49,4356.41,4214.87,4628.21,4587.18,4358.46,3974.36,4323.59,4672.82,4375.38,4687.18,1692,1700,0.737,0,0,0,0,1,0,
62,4243.59,4361.03,4257.95,4034.87,4523.59,4351.79,4773.33,4719.49,4483.08,4139.49,4466.67,4794.36,4530.26,4824.1,1691,1700,0.745,0,0,0,0,1,0,
63,4370.26,4483.08,4380,4144.1,4650.26,4454.36,4883.59,4824.62,4571.79,4280.51,4577.44,4887.18,4656.92,4927.18,1688,1702,0.752,0,0,0,0,1,0,
64,4385.13,4495.38,4395.9,4150.26,4664.1,4465.64,4894.87,4836.41,4567.18,4299.49,4581.03,4893.85,4670.26,4931.28,1689,1703,0.761,0,0,0,0,1,0,
65,4393.85,4504.62,4401.54,4155.38,4680.51,4472.31,4897.44,4838.46,4564.1,4306.67,4587.69,4896.92,4675.9,4936.92,1686,1703,0.768,0,0,0,0,1,0,
66,4423.08,4532.82,4426.67,4174.36,4714.87,4486.15,4913.85,4850.77,4577.95,4339.49,4618.46,4917.95,4705.13,4962.05,1685,1705,0.776,0,0,0,0,1,0,
67,4417.95,4525.64,4423.59,4157.95,4705.64,4473.85,4906.15,4843.59,4567.18,4342.56,4614.87,4914.36,4702.56,4955.38,1685,1702,0.784,0,0,0,0,1,0,
68,4407.69,4512.82,4415.38,4149.74,4695.9,4468.72,4902.05,4842.56,4560,4336.41,4610.26,4906.15,4696.92,4948.21,1684,1703,0.791,0,0,0,0,1,0,
69,4413.33,4517.95,4417.44,4161.03,4706.15,4475.38,4909.74,4850.77,4564.62,4338.46,4622.05,4909.23,4698.97,4955.38,1683,1702,0.799,0,0,0,0,1,0,
70,4411.79,4516.92,4415.9,4156.41,4703.59,4471.28,4907.69,4854.36,4566.15,4329.74,4622.56,4909.74,4689.23,4953.33,1683,1704,0.807,0,0,0,0,1,0,
71,4411.28,4518.46,4416.41,4151.79,4700.51,4466.67,4907.69,4855.38,4567.69,4328.72,4627.69,4910.77,4692.31,4952.82,1683,1703,0.815,0,0,0,0,1,0,
72,4415.38,4525.64,4417.44,4154.87,4704.1,4468.72,4911.28,4849.74,4563.08,4339.49,4638.97,4911.28,4705.13,4956.41,1684,1706,0.823,0,0,0,0,1,0,
73,4416.92,4523.59,4418.97,4154.87,4704.62,4472.31,4906.67,4842.05,4551.28,4337.95,4635.9,4908.21,4702.56,4955.38,1686,1706,0.83,0,0,0,0,1,0,
74,4416.41,4517.95,4421.03,4155.38,4706.15,4470.26,4900.51,4837.95,4544.62,4324.62,4625.64,4908.21,4692.82,4952.82,1686,1709,0.838,0,0,0,0,1,0,
75,4415.9,4519.49,4417.95,4155.9,4702.05,4466.67,4903.08,4837.44,4546.15,4317.95,4622.05,4910.77,4689.74,4953.33,1689,1711,0.846,0,0,0,0,1,0,
76,4412.82,4517.95,4412.31,4153.85,4694.36,4465.13,4902.56,4836.92,4549.23,4320,4622.56,4908.21,4688.72,4949.74,1691,1711,0.854,0,0,0,0,1,0,
77,4406.67,4510.26,4409.74,4149.74,4697.44,4463.59,4895.9,4835.38,4550.26,4323.59,4624.62,4904.1,4686.15,4943.08,1693,1714,0.863,0,0,0,0,1,0,
78,4404.1,4510.77,4411.28,4151.79,4705.13,4458.46,4896.92,4834.87,4551.79,4325.64,4624.62,4907.18,4684.1,4943.59,1695,1714,0.87,0,0,0,0,1,0,
79,4403.08,4518.46,4408.21,4150.77,4700,4458.46,4902.05,4839.49,4554.87,4321.03,4619.49,4909.23,4682.56,4947.69,1697,1716,0.877,0,0,0,0,1,0,
80,4397.95,4512.82,4400.51,4142.05,4691.79,4463.08,4897.95,4835.9,4549.74,4313.85,4616.41,4903.08,4684.1,4942.56,1699,1717,0.885,0,0,0,0,1,0,
81,4393.85,4503.59,4397.95,4142.56,4691.28,4460.51,4889.23,4825.13,4546.67,4316.41,4613.85,4898.46,4680.51,4934.36,1699,1718,0.893,0,0,0,0,1,0,
82,4393.33,4504.62,4397.95,4146.15,4689.74,4452.31,4889.74,4827.18,4553.33,4324.1,4607.69,4901.54,4671.79,4934.36,1702,1718,0.901,0,0,0,0,1,0,
83,4392.82,4510.77,4395.9,4137.44,4687.18,4451.79,4893.33,4831.79,4550.77,4317.95,4610.26,4902.56,4668.21,4939.49,1702,1719,0.909,0,0,0,0,1,0,
84,4390.77,4510.77,4394.87,4134.36,4686.15,4455.38,4889.74,4824.1,4537.95,4304.62,4614.36,4899.49,4672.31,4937.95,1704,1718,0.917,0,0,0,0,1,0,
85,4387.18,4505.13,4393.33,4142.05,4674.87,4451.28,4886.15,4814.87,4531.79,4301.03,4605.64,4895.38,4669.74,4928.21,1703,1719,0.924,0,0,0,0,1,0,
86,4381.03,4495.38,4388.72,4140.51,4661.03,4444.1,4886.67,4813.33,4532.82,4294.87,4601.54,4890.77,4657.44,4924.1,1704,1718,0.932,0,0,0,0,1,0,
87,4381.54,4493.85,4389.74,4135.38,4668.72,4443.08,4885.64,4816.41,4537.95,4291.28,4609.23,4891.79,4660.51,4933.33,1703,1718,0.94,0,0,0,0,1,0,
88,4385.13,4504.1,4391.79,4138.46,4683.08,4445.64,4884.62,4819.49,4539.49,4307.18,4607.69,4895.38,4674.87,4937.95,1702,1716,0.948,0,0,0,0,1,0,
89,4382.56,4503.59,4384.62,4138.97,4675.9,4442.05,4885.64,4818.97,4536.92,4316.92,4599.49,4891.28,4672.82,4930.26,1701,1716,0.956,0,0,0,0,1,0,
90,4382.05,4497.95,4383.08,4135.38,4665.13,4436.41,4882.56,4814.36,4536.92,4304.62,4602.56,4890.26,4664.1,4928.21,1700,1715,0.963,0,0,0,0,1,0,
91,4387.18,4500.51,4392.31,4136.41,4666.67,4434.87,4874.87,4810.26,4537.44,4296.92,4604.1,4897.44,4668.21,4935.38,1698,1716,0.971,0,0,0,0,1,0,
92,4388.72,4500.51,4395.38,4141.54,4661.03,4435.38,4873.33,4807.18,4534.87,4295.9,4594.87,4899.49,4672.31,4938.46,1697,1715,0.979,0,0,0,0,1,0,
93,4387.69,4496.41,4392.31,4138.46,4650.26,4435.38,4873.85,4805.13,4532.82,4287.69,4590.77,4895.9,4664.62,4936.92,1694,1716,0.987,0,0,0,0,1,0,
94,4391.79,4501.03,4393.85,4134.36,4652.82,4434.36,4873.33,4809.23,4534.36,4286.15,4595.38,4898.46,4661.54,4936.41,1694,1716,0.995,0,0,0,0,1,0,
95,4392.31,4503.59,4398.46,4138.97,4662.56,4432.31,4878.46,4814.36,4537.44,4294.36,4595.38,4904.1,4668.21,4940.51,1692,1713,1.003,0,0,0,0,1,0,
96,4384.62,4492.82,4393.85,4137.44,4664.62,4428.72,4880,4810.77,4537.95,4295.38,4586.15,4902.56,4668.21,4938.97,1689,1716,1.01,0,0,0,0,1,0,
97,4376.92,4484.62,4382.56,4127.69,4649.23,4423.08,4871.28,4796.41,4530.77,4285.13,4576.92,4892.31,4652.31,4928.21,1689,1713,1.018,0,0,0,0,1,0,
98,4370.26,4480,4374.87,4122.56,4628.21,4415.9,4860.51,4786.15,4520,4269.23,4570.77,4881.54,4639.49,4921.54,1686,1714,1.026,0,0,0,0,1,0,
99,4363.59,4471.79,4370.77,4121.54,4631.28,4411.79,4857.44,4787.18,4520,4262.56,4563.08,4878.46,4641.54,4920,1686,1714,1.034,0,0,0,0,1,0,
100,4361.54,4466.67,4369.23,4121.03,4645.13,4412.31,4858.46,4788.72,4525.13,4269.74,4560.51,4880.51,4641.54,4916.92,1685,1713,1.042,0,0,0,0,1,0,
101,4362.05,4467.69,4365.64,4123.08,4638.46,4415.38,4858.46,4786.15,4522.05,4267.69,4559.49,4877.95,4636.92,4915.38,1685,1711,1.049,0,0,0,0,1,0,
102,4363.08,4472.82,4362.56,4120.51,4627.69,4421.03,4856.92,4784.62,4520.51,4258.46,4555.38,4875.9,4639.49,4919.49,1683,1711,1.057,0,0,0,0,1,0,
103,4367.69,4478.97,4367.69,4121.54,4635.9,4420,4860.51,4788.72,4526.15,4264.62,4561.54,4880.51,4649.74,4924.1,1684,1711,1.065,0,0,0,0,1,0,
104,4369.23,4479.49,4368.72,4131.79,4643.59,4413.85,4861.03,4791.79,4527.69,4269.74,4566.15,4881.03,4653.33,4924.1,1683,1710,1.073,0,0,0,0,1,0,
105,4362.56,4471.79,4357.95,4127.69,4637.44,4411.28,4851.28,4789.23,4523.08,4260.51,4549.74,4875.9,4642.56,4916.92,1684,1710,1.081,0,0,0,0,1,0,
106,4356.92,4467.18,4352.82,4113.33,4631.28,4409.74,4852.82,4785.13,4523.59,4256.92,4537.44,4874.36,4637.44,4910.77,1683,1709,1.088,0,0,0,0,1,0,
107,4355.9,4468.21,4352.82,4107.18,4629.74,4411.79,4861.03,4786.15,4521.03,4261.03,4545.13,4875.9,4640.51,4911.28,1683,1711,1.096,0,0,0,0,1,0,
108,4354.87,4465.13,4348.21,4109.23,4624.62,4414.36,4854.87,4785.13,4512.82,4254.87,4545.64,4873.85,4635.38,4910.26,1684,1709,1.104,0,0,0,0,1,0,
109,4354.87,4457.44,4345.64,4109.74,4616.92,4409.23,4847.69,4779.49,4513.85,4245.13,4532.82,4869.74,4628.21,4905.64,1683,1709,1.112,0,0,0,0,1,0,
110,4359.49,4455.38,4349.74,4109.74,4617.95,4402.05,4851.28,4782.05,4522.05,4247.18,4535.38,4871.79,4634.87,4906.67,1685,1709,1.12,0,0,0,0,1,0,
111,4362.56,4456.92,4354.36,4113.85,4617.44,4401.54,4850.77,4786.15,4525.13,4250.77,4544.1,4875.9,4643.59,4912.82,1684,1708,1.128,0,0,0,0,1,0,
112,4358.97,4456.92,4354.87,4110.26,4612.31,4401.03,4845.13,4781.54,4518.46,4248.72,4541.54,4876.41,4641.03,4913.33,1686,1707,1.135,0,0,0,0,1,0,
113,4359.49,4458.46,4353.33,4106.15,4616.92,4401.03,4847.18,4778.97,4513.85,4249.74,4538.46,4874.36,4637.95,4912.31,1685,1706,1.143,0,0,0,0,1,0,
114,4363.59,4461.54,4354.36,4114.36,4622.05,4401.54,4847.18,4780.51,4514.87,4248.21,4537.95,4876.41,4639.49,4915.38,1686,1706,1.151,0,0,0,0,1,0,
115,4360,4458.46,4351.79,4115.9,4613.33,4394.36,4837.95,4771.79,4508.21,4241.03,4532.31,4874.87,4637.44,4915.38,1685,1705,1.159,0,0,0,0,1,0,
116,4351.79,4450.26,4344.1,4106.15,4606.67,4389.74,4834.87,4765.13,4499.49,4231.79,4522.56,4864.62,4621.54,4906.67,1687,1706,1.167,0,0,0,0,1,0,
117,4350.77,4448.72,4344.62,4109.74,4608.21,4390.26,4836.92,4773.85,4503.59,4228.21,4517.95,4865.13,4607.18,4900.51,1687,1704,1.175,0,0,0,0,1,0,
118,4355.38,4453.85,4349.23,4112.82,4595.9,4385.13,4832.82,4772.82,4508.21,4229.23,4521.03,4874.36,4616.92,4904.1,1687,1706,1.183,0,0,0,0,1,0,
119,4361.03,4453.85,4347.18,4101.03,4586.15,4380.51,4827.18,4768.21,4509.74,4235.9,4531.79,4875.38,4641.03,4914.36,1688,1704,1.19,0,0,0,0,1,0,
120,4373.33,4455.9,4350.26,4101.54,4595.9,4378.97,4828.72,4774.87,4514.87,4244.1,4542.05,4875.9,4661.54,4928.21,1688,1706,1.198,0,0,0,0,1,0,
121,4394.87,4467.69,4362.05,4113.33,4598.46,4374.36,4829.74,4778.97,4516.41,4240,4548.21,4885.64,4679.49,4944.1,1689,1706,1.206,0,0,0,0,1,0,
122,4417.95,4482.56,4373.33,4116.92,4583.08,4373.85,4826.67,4774.36,4513.85,4236.41,4558.46,4895.9,4703.08,4960.51,1690,1706,1.214,0,0,0,0,1,0,
123,4435.38,4493.85,4378.46,4121.03,4577.95,4373.33,4826.67,4772.31,4513.33,4248.72,4568.21,4900,4724.1,4973.33,1691,1707,1.221,0,0,0,0,1,0,
124,4448.72,4506.15,4379.49,4128.21,4585.64,4370.26,4828.21,4768.72,4511.79,4255.9,4569.23,4900.51,4729.74,4979.49,1691,1708,1.229,0,0,0,0,1,0,
125,4457.95,4509.74,4379.49,4125.64,4581.54,4371.28,4823.59,4764.62,4502.56,4239.49,4567.18,4897.44,4726.67,4983.08,1692,1710,1.237,0,0,0,0,1,0,
126,4456.41,4506.15,4378.46,4117.95,4575.9,4369.23,4819.49,4767.69,4496.41,4227.69,4564.1,4895.38,4726.15,4983.08,1693,1710,1.245,0,0,0,0,1,0,
127,4447.18,4502.05,4373.85,4116.41,4577.95,4365.13,4822.05,4765.64,4500.51,4227.18,4553.33,4893.33,4723.08,4978.97,1694,1710,1.253,0,0,0,0,1,0,
128,4441.03,4492.82,4365.64,4118.97,4569.74,4363.08,4821.54,4755.38,4500,4218.97,4541.54,4889.74,4712.31,4970.77,1693,1709,1.261,0,0,0,0,1,0,
0,4432.82,4477.44,4359.49,4112.31,4552.82,4358.46,4814.87,4751.79,4494.36,4212.82,4541.54,4882.56,4702.56,4959.49,1693,1710,1.268,0,0,0,0,1,0,
1,4418.97,4467.18,4353.33,4100.51,4549.23,4358.97,4812.82,4758.97,4494.87,4212.31,4547.69,4875.9,4697.44,4950.77,1695,1709,1.276,0,0,0,0,1,0,
2,4408.21,4458.97,4348.72,4097.44,4557.44,4364.62,4815.38,4766.15,4501.54,4210.77,4547.18,4876.92,4692.31,4947.69,1693,1710,1.284,0,0,0,0,1,0,
3,4401.03,4446.67,4345.64,4098.97,4559.49,4360,4817.95,4765.64,4502.56,4213.33,4536.92,4877.44,4679.49,4939.49,1694,1710,1.292,0,0,0,0,1,0,
4,4398.46,4442.56,4348.21,4097.44,4566.67,4361.54,4825.64,4768.72,4508.21,4225.13,4532.82,4878.46,4674.87,4935.38,1694,1710,1.3,0,0,0,0,1,0,
5,4400.51,4446.15,4355.38,4097.44,4577.95,4376.41,4834.87,4778.97,4520,4239.49,4542.05,4887.18,4685.64,4944.1,1693,1712,1.308,0,0,0,0,1,0,
6,4398.97,4442.05,4357.44,4096.92,4572.31,4379.49,4835.38,4782.56,4518.46,4241.03,4548.21,4892.82,4687.18,4947.69,1693,1712,1.315,0,0,0,0,1,0,
7,4390.26,4437.44,4351.79,4095.9,4566.15,4375.38,4830.77,4777.95,4512.31,4232.31,4542.05,4887.69,4673.33,4940.51,1692,1714,1.323,0,0,0,0,1,0,
8,4384.1,4442.05,4348.21,4097.44,4572.31,4377.95,4829.74,4774.87,4513.85,4229.74,4538.46,4879.49,4666.67,4936.92,1692,1714,1.331,0,0,0,0,1,0,
9,4381.03,4438.97,4347.69,4093.85,4572.82,4380.51,4828.72,4770.77,4512.82,4227.18,4536.92,4876.92,4666.67,4932.82,1692,1715,1.339,0,0,0,0,1,0,
10,4375.9,4426.15,4343.08,4092.31,4566.15,4378.46,4829.74,4770.77,4508.72,4218.46,4530.26,4876.92,4663.59,4924.62,1691,1716,1.347,0,0,0,0,1,0,
11,4370.26,4423.08,4338.97,4096.92,4573.85,4376.41,4832.82,4775.38,4511.28,4215.9,4528.72,4875.38,4660,4921.54,1691,1717,1.354,0,0,0,0,1,0,
12,4367.69,4422.56,4337.95,4093.33,4580,4376.92,4835.9,4776.41,4513.85,4218.97,4533.85,4875.9,4657.44,4922.56,1691,1717,1.362,0,0,0,0,1,0,
13,4367.18,4416.41,4338.46,4084.1,4569.23,4375.9,4836.41,4773.85,4510.77,4220,4536.41,4876.92,4655.38,4922.05,1692,1717,1.37,0,0,0,0,1,0,
14,4365.64,4412.31,4340,4087.18,4563.08,4370.77,4833.33,4773.85,4509.74,4223.59,4537.95,4875.9,4656.41,4924.62,1692,1716,1.378,0,0,0,0,1,0,
15,4362.05,4411.79,4334.87,4091.28,4569.23,4366.67,4829.74,4771.79,4508.72,4222.56,4537.44,4877.44,4654.87,4926.67,1693,1715,1.386,0,0,0,0,1,0,
16,4354.87,4406.15,4325.13,4080.51,4563.08,4363.59,4822.56,4767.18,4506.15,4213.33,4528.21,4873.33,4645.13,4916.92,1693,1713,1.394,0,0,0,0,1,0,
17,4347.18,4400.51,4322.05,4075.38,4550.26,4363.08,4814.87,4771.79,4508.21,4212.31,4520.51,4863.59,4639.49,4906.67,1694,1714,1.401,0,0,0,0,1,0,
18,4347.69,4400,4327.69,4085.64,4558.97,4367.69,4819.49,4780,4509.74,4220.51,4530.77,4868.21,4647.69,4914.36,1693,1712,1.409,0,0,0,0,1,0,
19,4349.74,4397.44,4329.23,4084.62,4566.67,4369.74,4826.15,4781.03,4506.67,4220.51,4535.9,4877.44,4648.21,4920,1693,1714,1.417,0,0,0,0,1,0,
20,4343.08,4392.31,4322.05,4071.28,4547.69,4362.05,4817.95,4778.46,4502.05,4205.64,4519.49,4868.21,4633.85,4905.64,1693,1712,1.425,0,0,0,0,1,0,
21,4349.23,4400,4325.13,4080,4544.1,4362.56,4817.44,4789.23,4506.67,4199.49,4521.03,4867.69,4639.49,4905.64,1692,1713,1.433,0,0,0,0,1,0,
22,4371.79,4419.49,4346.67,4108.72,4581.54,4384.1,4843.59,4816.92,4525.64,4232.31,4549.23,4890.77,4666.67,4929.74,1692,1713,1.44,0,0,0,0,1,0,
23,4363.59,4410.77,4345.64,4096.92,4584.1,4378.97,4840,4818.97,4523.59,4252.31,4542.56,4886.67,4653.85,4922.56,1691,1713,1.448,0,0,0,0,1,0,
24,4355.38,4410.26,4339.49,4081.54,4570.26,4372.82,4830.26,4816.41,4518.97,4247.18,4536.41,4877.44,4645.64,4916.92,1690,1714,1.456,0,0,0,0,1,0,
25,4461.03,4524.62,4440,4182.56,4685.64,4477.95,4933.33,4911.28,4608.21,4351.28,4640,4967.18,4762.05,5020.51,1690,1714,1.464,0,0,0,0,1,0,
26,4644.1,4708.72,4618.46,4355.38,4893.85,4649.23,5108.72,5072.31,4757.44,4561.54,4800.51,5114.87,4949.74,5184.1,1690,1715,1.472,0,0,0,0,1,0,
27,4754.36,4812.82,4725.13,4444.1,5011.28,4733.33,5202.56,5162.05,4829.74,4690.26,4884.1,5193.33,5058.97,5268.72,1690,1714,1.48,0,0,0,0,1,0,
28,4777.95,4835.9,4747.18,4445.13,5028.72,4737.44,5210.77,5169.74,4826.15,4707.69,4897.95,5205.64,5088.72,5282.05,1689,1714,1.487,0,0,0,0,1,0,
29,4793.85,4852.31,4760.51,4451.28,5047.18,4748.72,5219.49,5172.82,4825.13,4718.46,4907.69,5217.44,5104.1,5295.9,1690,1713,1.495,0,0,0,0,1,0,
30,4803.08,4856.41,4768.21,4461.03,5061.03,4753.33,5228.21,5172.31,4828.72,4731.28,4909.23,5224.62,5107.69,5301.54,1689,1715,1.503,0,0,0,0,1,0,
31,4792.82,4841.54,4761.54,4450.77,5050.26,4740,5222.05,5156.92,4818.97,4725.64,4899.49,5217.95,5101.03,5287.69,1691,1713,1.511,0,0,0,0,1,0,
32,4783.59,4836.92,4752.31,4440.51,5037.44,4734.36,5212.31,5146.15,4805.64,4716.92,4891.79,5208.72,5093.85,5278.97,1690,1713,1.519,0,0,0,0,1,0,
33,4776.41,4833.85,4743.08,4431.28,5030.26,4727.18,5200.51,5135.38,4793.85,4703.59,4881.03,5197.44,5078.46,5274.87,1691,1714,1.526,0,0,0,0,1,0,
34,4770.26,4824.62,4740,4425.64,5031.79,4721.54,5196.92,5126.15,4791.28,4695.9,4872.31,5196.41,5069.23,5270.77,1691,1714,1.534,0,0,0,0,1,0,
35,4767.69,4823.08,4738.97,4430.77,5036.41,4725.13,5198.46,5124.1,4789.74,4688.72,4869.74,5197.44,5068.72,5267.18,1692,1715,1.542,0,0,0,0,1,0,
36,4762.56,4824.62,4729.23,4430.77,5030.26,4721.54,5187.69,5115.9,4780.51,4675.9,4867.69,5187.18,5063.59,5262.05,1692,1715,1.55,0,0,0,0,1,0,
37,4752.31,4814.36,4715.9,4416.92,5016.92,4708.72,5175.38,5103.59,4772.31,4669.74,4867.18,5179.49,5053.85,5255.38,1692,1715,1.558,0,0,0,0,1,0,
38,4744.62,4800,4712.31,4410.26,5006.67,4703.08,5175.9,5099.49,4770.77,4665.64,4865.13,5180.51,5049.23,5248.21,1692,1715,1.566,0,0,0,0,1,0,
39,4742.05,4794.87,4713.85,4413.33,4998.46,4701.03,5178.46,5098.97,4772.82,4657.95,4856.41,5178.97,5043.59,5245.13,1692,1715,1.573,0,0,0,0,1,0,
40,4739.49,4793.85,4707.18,4405.13,4992.31,4693.85,5172.31,5093.85,4770.77,4652.31,4851.28,5172.31,5033.33,5244.1,1693,1715,1.581,0,0,0,0,1,0,
41,4729.23,4786.67,4698.46,4391.28,4987.18,4690.26,5166.67,5086.67,4765.13,4639.49,4846.15,5166.67,5022.56,5234.36,1692,1716,1.589,0,0,0,0,1,0,
42,4716.92,4776.92,4694.87,4388.72,4980,4686.67,5158.46,5082.05,4760.51,4626.15,4833.33,5163.08,5014.36,5226.67,1693,1715,1.597,0,0,0,0,1,0,
43,4715.9,4771.79,4691.79,4391.28,4977.44,4681.54,5152.82,5090.77,4759.49,4630.26,4829.74,5164.62,5014.36,5229.74,1692,1715,1.605,0,0,0,0,1,0,
44,4714.36,4767.69,4687.18,4389.23,4967.69,4681.03,5154.36,5108.72,4756.92,4632.31,4831.79,5164.62,5013.85,5229.23,1694,1716,1.612,0,0,0,0,1,0,
45,4706.15,4762.05,4686.15,4385.64,4955.38,4682.05,5155.38,5115.38,4752.82,4616.92,4824.1,5156.41,5003.08,5221.54,1693,1715,1.62,0,0,0,0,1,0,
46,4701.54,4758.46,4680.51,4381.03,4957.95,4675.9,5149.23,5122.05,4751.79,4601.03,4817.44,5148.72,4990.26,5214.36,1692,1717,1.628,0,0,0,0,1,0,
47,4696.92,4761.03,4670.77,4376.41,4961.54,4669.74,5142.05,5145.13,4753.85,4596.41,4826.15,5148.72,4991.28,5211.28,1694,1715,1.636,0,0,0,0,1,0,
48,4689.23,4760.51,4669.23,4376.92,4956.41,4670.77,5140,5174.36,4755.9,4600.51,4828.72,5149.74,4994.87,5214.36,1693,1716,1.644,0,0,0,0,1,0,
49,4683.59,4748.72,4663.59,4372.82,4951.28,4665.13,5135.9,5190.26,4750.77,4600.51,4814.36,5140,4983.59,5211.28,1693,1715,1.652,0,0,0,0,1,0,
50,4676.92,4736.41,4652.31,4363.59,4939.49,4654.87,5127.18,5189.74,4741.03,4590.26,4807.69,5132.31,4970.26,5198.46,1694,1715,1.659,0,0,0,0,1,0,
51,4670.26,4731.79,4646.67,4357.44,4926.67,4652.31,5125.13,5192.31,4741.03,4582.56,4813.33,5133.85,4965.64,5194.87,1694,1713,1.667,0,0,0,0,1,0,
52,4665.64,4724.62,4645.13,4353.85,4925.64,4653.33,5125.64,5195.38,4741.54,4576.92,4810.26,5131.79,4967.18,5195.38,1694,1713,1.675,0,0,0,0,1,0,
53,4658.97,4716.92,4637.44,4351.79,4922.56,4649.23,5118.97,5189.23,4731.28,4562.56,4808.21,5122.05,4964.62,5185.64,1694,1713,1.683,0,0,0,0,1,0,
54,4656.41,4718.97,4630.77,4353.33,4911.28,4642.56,5112.82,5185.13,4727.18,4550.26,4811.79,5119.49,4956.41,5181.54,1694,1713,1.691,0,0,0,0,1,0,
55,4654.87,4718.97,4628.72,4346.15,4907.69,4639.49,5111.79,5188.21,4730.26,4551.79,4803.59,5123.08,4949.74,5183.59,1694,1713,1.698,0,0,0,0,1,0,
56,4644.1,4705.64,4622.05,4337.95,4904.62,4641.03,5106.67,5183.59,4725.64,4553.85,4790.26,5115.9,4945.13,5174.36,1694,1712,1.706,0,0,0,0,1,0,
57,4635.9,4700,4612.82,4339.49,4891.28,4639.49,5100,5175.9,4724.1,4544.62,4792.31,5106.15,4937.95,5165.13,1694,1713,1.714,0,0,0,0,1,0,
58,4632.31,4703.08,4604.62,4336.41,4881.03,4629.74,5096.92,5174.87,4725.64,4532.31,4794.36,5103.59,4929.23,5163.08,1695,1711,1.722,0,0,0,0,1,0,
59,4621.03,4693.33,4600,4326.67,4883.08,4624.1,5093.33,5168.72,4718.97,4522.05,4784.1,5102.05,4923.59,5157.44,1694,1712,1.73,0,0,0,0,1,0,
60,4613.85,4685.13,4595.9,4327.18,4886.15,4624.1,5089.74,5165.13,4717.95,4519.49,4779.49,5097.95,4916.41,5151.28,1695,1710,1.738,0,0,0,0,1,0,
61,4616.41,4685.64,4591.28,4330.77,4884.1,4622.05,5089.74,5169.23,4725.13,4524.62,4785.64,5095.9,4911.79,5154.36,1694,1711,1.745,0,0,0,0,1,0,
62,4615.9,4680,4589.23,4321.03,4877.95,4619.49,5085.64,5164.62,4721.54,4521.03,4783.08,5093.33,4911.79,5152.82,1694,1711,1.753,0,0,0,0,1,0,
63,4607.69,4670.26,4583.08,4312.82,4865.13,4613.33,5076.41,5152.82,4707.69,4506.15,4771.79,5087.18,4910.77,5143.08,1693,1711,1.761,0,0,0,0,1,0,
64,4601.54,4666.67,4571.28,4312.82,4854.36,4604.62,5070.26,5146.67,4701.03,4499.49,4774.87,5085.64,4911.28,5143.08,1693,1711,1.769,0,0,0,0,1,0,
65,4597.95,4662.05,4566.67,4308.72,4854.36,4603.59,5068.21,5148.72,4703.59,4497.95,4784.62,5087.69,4908.72,5144.62,1693,1711,1.777,0,0,0,0,1,0,
66,4592.31,4655.9,4571.79,4300.51,4848.72,4607.18,5066.15,5144.1,4703.08,4483.08,4774.36,5082.05,4897.95,5139.49,1693,1710,1.785,0,0,0,0,1,0,
67,4581.54,4648.21,4567.18,4293.85,4829.23,4600.51,5060,5132.82,4698.46,4473.33,4760.51,5071.79,4886.15,5130.77,1692,1712,1.792,0,0,0,0,1,0,
68,4574.87,4638.46,4554.87,4291.79,4823.08,4590.77,5055.9,5131.28,4696.41,4479.49,4763.59,5066.67,4880,5125.13,1693,1711,1.8,0,0,0,0,1,0,
69,4578.46,4644.62,4553.85,4296.41,4836.41,4593.85,5056.41,5137.44,4702.05,4482.56,4766.67,5070.77,4884.1,5126.15,1693,1711,1.808,0,0,0,0,1,0,
70,4580.51,4651.28,4555.9,4296.92,4837.44,4597.44,5055.38,5132.31,4704.1,4475.38,4763.08,5069.74,4885.64,5128.72,1693,1711,1.816,0,0,0,0,1,0,
71,4574.36,4638.97,4546.67,4289.23,4823.59,4590.26,5046.15,5121.54,4692.82,4465.13,4755.9,5060,4874.36,5123.59,1693,1712,1.824,0,0,0,0,1,0,
72,4566.15,4629.74,4536.92,4287.18,4812.82,4582.56,5038.97,5114.87,4684.62,4456.41,4750.26,5054.36,4864.1,5115.38,1694,1711,1.831,0,0,0,0,1,0,
73,4562.56,4633.33,4536.41,4288.72,4806.15,4581.03,5040,5108.21,4687.18,4450.26,4749.74,5054.87,4865.13,5110.26,1692,1712,1.839,0,0,0,0,1,0,
74,4557.44,4626.15,4535.9,4281.03,4802.05,4580,5039.49,5104.62,4686.15,4445.64,4748.72,5054.36,4863.08,5106.15,1692,1712,1.847,0,0,0,0,1,0,
75,4551.28,4615.38,4533.85,4275.38,4805.64,4581.03,5036.92,5109.74,4684.1,4443.08,4746.67,5054.36,4857.44,5108.21,1692,1711,1.855,0,0,0,0,1,0,
76,4554.87,4621.03,4530.77,4279.49,4805.64,4579.49,5035.9,5111.28,4688.21,4438.97,4745.64,5054.36,4853.85,5109.74,1692,1712,1.863,0,0,0,0,1,0,
77,4553.85,4618.46,4523.59,4278.97,4790.77,4570.77,5031.79,5103.59,4687.18,4432.82,4743.59,5047.18,4853.33,5102.56,1693,1711,1.871,0,0,0,0,1,0,
78,4541.03,4603.59,4518.46,4270.26,4780.51,4568.72,5026.15,5098.46,4684.1,4430.26,4738.46,5040,4851.79,5095.9,1692,1712,1.878,0,0,0,0,1,0,
79,4536.92,4605.64,4522.05,4263.08,4787.69,4571.79,5024.62,5103.59,4687.69,4432.82,4738.46,5041.54,4847.69,5097.44,1692,1711,1.886,0,0,0,0,1,0,
80,4544.62,4613.85,4524.1,4263.59,4785.64,4566.15,5025.64,5102.05,4688.21,4437.44,4741.03,5045.64,4849.23,5100.51,1692,1711,1.894,0,0,0,0,1,0,
81,4544.62,4606.15,4516.92,4265.13,4771.79,4557.44,5022.56,5089.74,4678.97,4434.36,4739.49,5041.03,4850.26,5094.87,1692,1712,1.902,0,0,0,0,1,0,
82,4535.38,4597.44,4506.67,4264.1,4773.33,4551.79,5016.41,5083.59,4670.77,4420.51,4735.38,5031.79,4838.97,5086.15,1692,1711,1.91,0,0,0,0,1,0,
83,4530.26,4596.92,4505.64,4264.62,4782.05,4552.82,5012.31,5083.59,4671.28,4412.31,4730.77,5028.21,4830.26,5086.15,1693,1711,1.917,0,0,0,0,1,0,
84,4526.67,4593.33,4508.72,4256.41,4774.87,4556.41,5006.15,5075.9,4669.74,4408.21,4731.28,5027.69,4832.82,5089.74,1692,1710,1.925,0,0,0,0,1,0,
85,4522.56,4590.26,4503.59,4244.62,4764.1,4551.28,4998.46,5068.72,4662.56,4394.87,4729.23,5025.13,4827.18,5085.64,1693,1710,1.933,0,0,0,0,1,0,
86,4520,4590.26,4496.41,4248.21,4760,4542.56,4996.92,5069.74,4660,4392.31,4724.62,5024.1,4820,5080.51,1694,1709,1.941,0,0,0,0,1,0,
87,4513.33,4586.15,4492.82,4251.28,4755.38,4540,4995.38,5064.1,4661.54,4403.59,4723.08,5025.64,4822.56,5077.95,1693,1712,1.949,0,0,0,0,1,0,
88,4507.69,4578.97,4489.74,4244.1,4748.72,4537.95,4990.26,5054.36,4657.95,4398.97,4719.49,5021.54,4822.05,5074.87,1694,1711,1.957,0,0,0,0,1,0,
89,4508.21,4575.9,4489.23,4245.13,4744.1,4534.87,4988.72,5055.9,4655.9,4386.67,4717.95,5017.95,4816.41,5071.79,1694,1713,1.964,0,0,0,0,1,0,
90,4508.72,4574.36,4488.21,4249.23,4737.44,4535.38,4990.26,5058.46,4657.95,4384.1,4716.41,5022.56,4813.85,5071.79,1694,1713,1.972,0,0,0,0,1,0,
91,4501.54,4566.15,4481.03,4235.38,4726.67,4533.33,4984.1,5054.36,4653.85,4376.92,4707.18,5023.08,4809.23,5067.18,1693,1713,1.98,0,0,0,0,1,0,
92,4492.31,4560,4474.87,4227.18,4726.15,4529.74,4982.56,5051.79,4652.82,4371.79,4703.08,5015.38,4800,5061.54,1693,1713,1.988,0,0,0,0,1,0,
93,4489.23,4560,4472.31,4228.21,4730.77,4530.77,4985.64,5049.74,4658.46,4372.31,4710.77,5010.77,4795.9,5061.54,1693,1714,1.996,0,0,0,0,1,0,
94,4484.62,4558.46,4466.67,4226.15,4725.13,4528.72,4984.1,5042.56,4656.41,4365.64,4707.18,5009.23,4792.31,5056.92,1693,1715,2.003,0,0,0,0,1,0,
95,4478.46,4552.31,4462.56,4227.69,4715.9,4523.59,4978.46,5032.82,4647.18,4360,4696.41,5007.18,4786.67,5050.77,1693,1716,2.011,0,0,0,0,1,0,
96,4475.38,4544.62,4461.03,4225.64,4710.26,4518.46,4969.74,5024.1,4638.46,4350.77,4695.9,5002.56,4784.62,5050.26,1694,1716,2.019,0,0,0,0,1,0,
97,4476.41,4543.59,4460,4215.38,4708.72,4515.38,4965.64,5021.54,4641.54,4337.95,4696.41,4999.49,4782.56,5049.23,1694,1715,2.027,0,0,0,0,1,0,
98,4473.33,4545.64,4456.41,4211.28,4713.85,4515.9,4965.64,5024.62,4647.18,4340.51,4691.79,4997.95,4776.92,5045.64,1692,1716,2.035,0,0,0,0,1,0,
99,4466.15,4535.9,4450.26,4217.95,4715.9,4513.85,4961.54,5023.59,4643.08,4350.77,4688.72,4996.41,4772.31,5043.59,1693,1715,2.043,0,0,0,0,1,0,
100,4466.67,4524.62,4449.23,4217.44,4704.1,4504.1,4954.87,5017.95,4635.38,4344.62,4686.15,4992.82,4772.31,5040.51,1692,1715,2.05,0,0,0,0,1,0,
101,4471.28,4527.18,4451.79,4205.64,4693.33,4504.1,4955.38,5013.85,4635.9,4335.9,4683.59,4992.31,4773.33,5039.49,1693,1714,2.058,0,0,0,0,1,0,
102,4468.72,4528.72,4449.23,4200.51,4696.41,4510.26,4957.44,5013.85,4639.49,4333.33,4686.15,4992.82,4773.33,5043.08,1691,1714,2.066,0,0,0,0,1,0,
103,4462.05,4522.05,4443.08,4204.1,4699.49,4505.64,4954.36,5011.28,4635.38,4324.1,4686.15,4987.69,4767.18,5040,1692,1715,2.074,0,0,0,0,1,0,
104,4456.41,4517.95,4437.44,4207.69,4693.33,4503.08,4952.31,5005.64,4628.72,4316.41,4683.08,4983.59,4758.97,5033.85,1692,1714,2.082,0,0,0,0,1,0,
105,4450.77,4509.23,4429.23,4202.56,4685.13,4510.26,4952.31,5002.05,4624.1,4312.31,4683.08,4980,4753.85,5026.67,1692,1715,2.089,0,0,0,0,1,0,
106,4448.72,4506.15,4427.18,4193.85,4682.05,4505.64,4952.31,5003.08,4628.72,4310.77,4683.59,4977.44,4750.26,5022.05,1691,1713,2.097,0,0,0,0,1,0,
107,4449.74,4510.26,4431.28,4193.85,4680,4497.44,4951.28,5004.1,4632.31,4309.23,4681.54,4978.46,4750.77,5026.67,1691,1713,2.105,0,0,0,0,1,0,
108,4446.67,4506.15,4428.72,4197.95,4676.41,4499.49,4947.18,4997.95,4628.72,4307.18,4686.15,4977.95,4756.41,5029.23,1691,1712,2.113,0,0,0,0,1,0,
109,4447.69,4503.59,4424.62,4191.28,4673.33,4497.44,4941.03,4991.28,4630.26,4309.74,4691.79,4978.97,4758.97,5026.67,1691,1713,2.121,0,0,0,0,1,0,
110,4448.72,4508.72,4425.13,4185.13,4670.26,4490.26,4934.36,4989.74,4632.82,4309.23,4687.69,4978.97,4752.82,5027.18,1691,1712,2.129,0,0,0,0,1,0,
111,4440,4503.08,4421.03,4185.13,4664.62,4484.1,4930.77,4987.69,4628.21,4306.15,4680,4973.33,4746.67,5022.56,1691,1713,2.136,0,0,0,0,1,0,
112,4431.79,4492.31,4413.85,4178.46,4655.38,4481.03,4927.69,4984.62,4622.56,4305.13,4675.9,4966.67,4742.05,5011.28,1691,1713,2.144,0,0,0,0,1,0,
113,4427.69,4490.77,4408.21,4175.38,4649.23,4482.05,4924.1,4978.97,4617.95,4297.44,4668.72,4958.97,4731.28,5005.13,1691,1712,2.152,0,0,0,0,1,0,
114,4423.08,4488.21,4403.08,4180,4650.77,4484.62,4925.13,4972.31,4617.44,4283.59,4667.18,4952.31,4728.21,5003.59,1691,1713,2.16,0,0,0,0,1,0,
115,4423.08,4483.59,4402.05,4178.97,4655.9,4478.46,4926.15,4974.36,4621.03,4283.08,4673.33,4957.44,4736.41,5005.13,1692,1711,2.168,0,0,0,0,1,0,
116,4424.1,4482.56,4403.08,4175.9,4652.31,4471.79,4923.08,4981.03,4619.49,4286.15,4673.33,4964.62,4734.87,5004.1,1692,1712,2.175,0,0,0,0,1,0,
117,4417.44,4479.49,4400,4173.85,4643.59,4475.9,4922.05,4976.92,4615.9,4273.85,4667.69,4956.92,4724.1,4998.46,1692,1712,2.183,0,0,0,0,1,0,
118,4412.31,4475.38,4394.87,4167.18,4640,4475.38,4922.56,4965.64,4613.85,4263.59,4664.62,4949.74,4723.08,4995.9,1691,1712,2.191,0,0,0,0,1,0,
119,4415.38,4474.36,4394.36,4167.69,4637.95,4469.23,4917.44,4961.54,4608.21,4269.23,4663.59,4953.33,4726.15,4994.87,1692,1711,2.199,0,0,0,0,1,0,
120,4412.82,4465.64,4392.31,4167.69,4630.77,4470.26,4910.77,4958.46,4608.21,4274.36,4662.05,4951.28,4724.62,4990.26,1692,1712,2.207,0,0,0,0,1,0,
121,4400,4455.9,4384.1,4153.85,4627.69,4471.79,4909.74,4954.87,4611.79,4267.18,4658.46,4944.62,4722.05,4987.18,1691,1712,2.215,0,0,0,0,1,0,
122,4396.92,4458.97,4381.03,4150.77,4627.18,4464.62,4908.72,4955.9,4608.72,4263.59,4656.41,4946.67,4721.03,4990.77,1691,1711,2.222,0,0,0,0,1,0,
123,4404.1,4461.54,4388.21,4159.49,4624.62,4457.95,4905.64,4954.36,4606.15,4268.72,4657.95,4952.82,4722.56,4991.79,1691,1710,2.23,0,0,0,0,1,0,
124,4407.18,4456.92,4391.28,4158.97,4625.13,4458.46,4902.05,4953.33,4612.82,4273.85,4662.56,4954.87,4723.59,4990.77,1689,1711,2.238,0,0,0,0,1,0,
125,4400.51,4457.44,4382.56,4151.79,4623.08,4457.95,4897.44,4954.36,4610.77,4264.1,4659.49,4950.26,4718.46,4988.21,1689,1710,2.246,0,0,0,0,1,0,
126,4393.33,4456.92,4372.82,4149.23,4612.82,4454.36,4893.33,4950.77,4601.54,4245.64,4649.23,4942.05,4706.67,4981.54,1689,1711,2.254,0,0,0,0,1,0,
127,4392.82,4450.26,4371.79,4151.79,4608.21,4455.38,4895.38,4943.08,4600,4245.13,4647.18,4936.92,4700.51,4979.49,1690,1711,2.261,0,0,0,0,1,0,
128,4395.38,4448.72,4374.87,4154.36,4609.74,4456.92,4897.95,4936.92,4598.97,4249.74,4647.69,4937.95,4701.03,4979.49,1690,1713,2.269,0,0,0,0,1,0,
0,4392.82,4449.74,4372.82,4149.74,4612.31,4453.85,4895.9,4934.36,4593.85,4240.51,4641.54,4938.46,4699.49,4974.87,1690,1712,2.277,0,0,0,0,1,0,
1,4387.69,4448.72,4367.18,4144.1,4611.28,4453.85,4895.9,4935.38,4590.77,4232.31,4634.87,4932.31,4694.87,4971.79,1689,1713,2.285,0,0,0,0,1,0,
2,4380,4441.03,4360.51,4142.05,4597.95,4453.33,4891.79,4932.31,4588.72,4230.77,4632.31,4923.59,4685.64,4965.64,1691,1713,2.293,0,0,0,0,1,0,
3,4373.33,4430.77,4355.38,4140.51,4591.79,4448.21,4881.54,4925.13,4587.18,4225.13,4631.79,4922.56,4681.03,4956.92,1689,1712,2.301,0,0,0,0,1,0,
4,4375.38,4434.36,4356.92,4137.95,4605.13,4447.69,4882.56,4925.13,4587.18,4215.9,4633.85,4929.23,4685.64,4960,1690,1714,2.308,0,0,0,0,1,0,
5,4381.03,4441.54,4363.59,4139.49,4610.77,4447.69,4892.31,4930.77,4589.74,4215.38,4636.41,4931.28,4687.18,4967.18,1690,1713,2.316,0,0,0,0,1,0,
6,4374.36,4434.36,4362.05,4141.03,4592.82,4441.03,4886.15,4926.67,4587.69,4219.49,4632.82,4924.62,4678.46,4960,1690,1713,2.324,0,0,0,0,1,0,
7,4364.1,4424.1,4351.79,4134.87,4576.92,4435.9,4872.82,4917.95,4580.51,4216.41,4626.67,4920,4670.77,4949.23,1690,1712,2.332,0,0,0,0,1,0,
8,4363.08,4421.03,4347.69,4124.62,4582.56,4436.41,4875.9,4920.51,4583.08,4213.33,4627.18,4921.54,4671.28,4952.31,1691,1713,2.34,0,0,0,0,1,0,
9,4364.1,4420.51,4348.72,4125.13,4592.82,4436.41,4881.54,4923.59,4589.74,4220,4631.28,4924.1,4675.9,4958.46,1692,1712,2.348,0,0,0,0,1,0,
10,4364.1,4426.67,4346.67,4130.26,4586.67,4436.41,4876.92,4920,4586.67,4218.97,4632.31,4923.08,4677.44,4957.95,1691,1713,2.355,0,0,0,0,1,0,
11,4365.64,4427.69,4345.64,4132.31,4576.92,4433.85,4874.87,4921.54,4585.64,4210.77,4633.85,4917.95,4674.36,4956.41,1692,1712,2.363,0,0,0,0,1,0,
12,4364.62,4416.41,4344.62,4131.28,4578.46,4428.21,4875.38,4922.05,4589.74,4215.38,4639.49,4912.31,4670.26,4953.85,1691,1712,2.371,0,0,0,0,1,0,
13,4353.33,4411.28,4335.38,4122.05,4570.77,4426.15,4866.67,4911.28,4580.51,4214.36,4635.9,4904.1,4663.08,4945.13,1692,1712,2.379,0,0,0,0,1,0,
14,4344.1,4414.36,4323.08,4111.79,4559.49,4427.18,4861.03,4905.64,4572.31,4201.54,4628.21,4893.85,4658.46,4935.9,1692,1712,2.387,0,0,0,0,1,0,
15,4346.15,4412.31,4321.03,4112.31,4570.77,4429.23,4866.15,4911.79,4581.54,4203.59,4632.82,4893.33,4660.51,4936.41,1691,1713,2.394,0,0,0,0,1,0,
16,4347.69,4408.72,4325.64,4115.9,4580.51,4426.67,4867.18,4909.23,4582.05,4209.23,4637.44,4897.44,4658.46,4940,1692,1711,2.402,0,0,0,0,1,0,
17,4343.59,4409.74,4325.64,4114.36,4567.69,4420.51,4859.49,4901.03,4572.31,4194.87,4634.87,4894.87,4649.74,4937.95,1691,1713,2.41,0,0,0,0,1,0,
18,4344.1,4407.18,4323.59,4112.82,4556.92,4416.92,4853.33,4900,4573.85,4179.49,4635.38,4892.31,4650.26,4935.9,1692,1713,2.418,0,0,0,0,1,0,
19,4345.64,4399.49,4323.08,4110.26,4558.97,4416.41,4854.36,4897.44,4575.38,4187.69,4637.95,4894.87,4653.85,4939.49,1692,1713,2.426,0,0,0,0,1,0,
20,4336.92,4393.33,4318.46,4103.08,4554.87,4415.38,4854.87,4889.74,4566.67,4196.92,4635.9,4893.33,4647.18,4935.38,1692,1713,2.434,0,0,0,0,1,0,
21,4330.77,4395.9,4311.79,4102.05,4549.23,4412.31,4855.9,4889.23,4566.67,4189.74,4632.31,4888.72,4638.97,4926.15,1691,1712,2.441,0,0,0,0,1,0,
22,4332.82,4397.95,4311.28,4106.67,4550.77,4411.28,4857.95,4893.85,4574.36,4182.56,4631.28,4889.74,4636.41,4925.64,1691,1712,2.449,0,0,0,0,1,0,
23,4332.82,4391.79,4314.36,4104.1,4549.23,4412.31,4852.31,4887.18,4567.18,4175.38,4629.74,4888.72,4632.31,4930.77,1690,1712,2.457,0,0,0,0,1,0,
24,4331.28,4388.72,4311.28,4097.44,4542.56,4412.82,4845.13,4877.95,4558.46,4167.69,4628.21,4882.05,4624.1,4927.69,1691,1712,2.465,0,0,0,0,1,0,
25,4331.28,4387.69,4307.18,4095.38,4536.41,4411.28,4844.62,4876.41,4562.05,4165.13,4625.64,4878.97,4621.03,4923.59,1690,1711,2.473,0,0,0,0,1,0,
26,4330.26,4383.59,4306.15,4096.92,4535.9,4409.74,4840.51,4871.79,4560.51,4163.08,4623.08,4881.03,4622.05,4925.13,1690,1713,2.48,0,0,0,0,1,0,
27,4329.23,4386.15,4306.67,4098.46,4542.56,4409.23,4835.9,4866.15,4553.85,4163.08,4626.67,4879.49,4623.59,4927.18,1691,1712,2.488,0,0,0,0,1,0,
28,4332.31,4393.85,4308.21,4100.51,4549.74,4405.64,4838.46,4871.79,4556.92,4166.67,4630.77,4878.46,4624.62,4926.67,1690,1713,2.496,0,0,0,0,1,0,
29,4331.79,4389.74,4310.26,4100.51,4544.62,4401.54,4837.95,4878.97,4561.03,4165.13,4630.26,4877.44,4622.56,4923.08,1691,1712,2.504,0,0,0,0,1,0,
30,4327.69,4383.59,4309.23,4097.44,4536.92,4402.05,4834.36,4877.95,4561.03,4162.56,4630.77,4876.92,4618.46,4921.03,1690,1712,2.512,0,0,0,0,1,0,
31,4323.59,4384.62,4302.56,4091.28,4534.36,4404.1,4835.9,4872.82,4561.03,4166.15,4629.74,4876.41,4614.87,4918.97,1691,1713,2.52,0,0,0,0,1,0,
32,4314.36,4377.95,4294.36,4085.13,4530.77,4402.05,4831.79,4870.26,4556.92,4165.13,4623.08,4870.77,4607.69,4910.77,1689,1713,2.527,0,0,0,0,1,0,
33,4308.72,4367.69,4291.28,4080,4527.69,4398.97,4827.18,4868.72,4552.82,4158.97,4616.92,4863.59,4598.46,4905.13,1690,1713,2.535,0,0,0,0,1,0,
34,4310.77,4366.15,4293.33,4080.51,4528.72,4400,4829.74,4865.13,4555.38,4158.46,4617.95,4868.72,4596.92,4906.67,1689,1712,2.543,0,0,0,0,1,0,
35,4313.33,4371.28,4296.41,4085.13,4524.1,4399.49,4829.23,4860,4554.87,4159.49,4621.03,4875.9,4600,4909.23,1690,1713,2.551,0,0,0,0,1,0,
36,4312.82,4371.79,4290.77,4085.13,4516.41,4391.28,4823.08,4854.36,4546.15,4151.79,4621.03,4870.26,4594.87,4910.26,1689,1711,2.559,0,0,0,0,1,0,
37,4309.23,4363.59,4286.15,4078.46,4516.41,4387.18,4817.44,4847.69,4543.08,4144.1,4618.97,4861.54,4587.18,4909.23,1690,1713,2.566,0,0,0,0,1,0,
38,4307.69,4362.05,4289.74,4078.97,4518.46,4392.31,4812.82,4846.67,4548.21,4146.67,4622.56,4865.13,4592.31,4906.15,1691,1711,2.574,0,0,0,0,1,0,
39,4310.77,4368.72,4289.23,4084.1,4516.41,4391.28,4813.33,4847.69,4546.67,4144.62,4626.67,4869.74,4594.87,4905.13,1689,1712,2.582,0,0,0,0,1,0,
40,4312.31,4369.74,4288.21,4084.62,4513.33,4382.05,4814.36,4845.13,4536.41,4132.82,4623.59,4866.67,4586.67,4907.18,1691,1712,2.59,0,0,0,0,1,0,
41,4308.21,4364.62,4290.77,4082.05,4512.31,4377.95,4808.72,4838.46,4534.87,4131.79,4617.95,4861.54,4581.54,4906.15,1691,1711,2.598,0,0,0,0,1,0,
42,4302.56,4361.54,4286.67,4073.33,4509.74,4378.46,4807.69,4833.33,4538.97,4130.26,4615.9,4860.51,4576.92,4896.92,1692,1713,2.606,0,0,0,0,1,0,
43,4296.92,4357.44,4274.87,4064.1,4504.62,4378.46,4809.74,4831.28,4538.46,4121.03,4613.85,4855.9,4570.77,4887.69,1692,1712,2.613,0,0,0,0,1,0,
44,4289.74,4352.31,4269.23,4065.13,4503.08,4375.9,4804.62,4833.85,4536.41,4127.69,4608.21,4849.74,4571.79,4887.18,1692,1712,2.621,0,0,0,0,1,0,
45,4288.72,4349.23,4268.21,4065.64,4502.56,4376.41,4802.05,4835.38,4537.95,4141.54,4607.69,4847.69,4572.82,4891.28,1692,1711,2.629,0,0,0,0,1,0,
46,4293.85,4352.31,4266.67,4064.62,4502.05,4375.38,4806.15,4833.85,4543.59,4138.46,4611.79,4848.21,4570.26,4889.23,1693,1712,2.637,0,0,0,0,1,0,
47,4288.72,4356.41,4265.13,4061.03,4495.38,4372.82,4802.05,4831.79,4543.08,4127.18,4609.23,4845.64,4570.77,4881.03,1694,1711,2.645,0,0,0,0,1,0,
48,4277.44,4348.72,4260,4060.51,4485.64,4372.31,4794.87,4825.64,4534.36,4123.08,4602.05,4841.54,4568.72,4876.41,1693,1711,2.652,0,0,0,0,1,0,
49,4279.49,4338.97,4261.03,4066.15,4492.31,4373.85,4797.44,4821.54,4534.36,4124.1,4603.59,4842.05,4564.1,4877.44,1693,1711,2.66,0,0,0,0,1,0,
50,4284.62,4341.54,4265.64,4063.59,4502.56,4369.23,4798.46,4824.62,4538.97,4124.1,4605.64,4843.59,4564.62,4878.46,1693,1712,2.668,0,0,0,0,1,0,
51,4280.51,4347.18,4263.08,4052.31,4499.49,4365.64,4794.87,4822.05,4534.36,4121.03,4603.08,4842.05,4564.1,4876.92,1692,1711,2.676,0,0,0,0,1,0,
52,4280,4345.64,4256.92,4050.77,4493.33,4368.21,4795.9,4820,4531.79,4123.59,4604.1,4843.08,4561.54,4877.44,1692,1712,2.684,0,0,0,0,1,0,
53,4284.1,4341.03,4257.44,4058.97,4491.28,4369.74,4796.41,4823.59,4537.95,4130.26,4602.56,4844.62,4564.62,4879.49,1691,1711,2.692,0,0,0,0,1,0,
54,4283.59,4340,4261.54,4059.49,4490.26,4368.72,4795.9,4822.56,4539.49,4128.21,4599.49,4842.56,4567.69,4881.54,1691,1712,2.699,0,0,0,0,1,0,
55,4282.56,4346.67,4260.51,4057.95,4492.82,4368.72,4798.46,4816.41,4537.44,4125.64,4602.56,4843.59,4568.21,4881.03,1690,1711,2.707,0,0,0,0,1,0,
56,4281.03,4348.72,4257.44,4053.33,4492.31,4366.15,4794.87,4813.33,4535.38,4122.56,4602.05,4845.64,4567.18,4877.95,1690,1713,2.715,0,0,0,0,1,0,
57,4274.36,4339.49,4252.82,4049.74,4483.59,4361.03,4786.15,4805.13,4527.18,4111.28,4590.77,4838.46,4560,4873.33,1691,1710,2.723,0,0,0,0,1,0,
58,4270.77,4333.33,4247.18,4052.31,4483.08,4358.97,4786.67,4800,4519.49,4100.51,4580,4830.77,4552.31,4869.74,1689,1711,2.731,0,0,0,0,1,0,
59,4270.26,4335.38,4247.18,4053.33,4486.67,4362.56,4790.26,4806.15,4522.05,4100,4576.41,4831.28,4555.38,4867.69,1691,1712,2.738,0,0,0,0,1,0,
60,4268.72,4335.9,4248.72,4054.87,4479.49,4364.1,4784.62,4807.69,4525.64,4110.26,4574.87,4832.31,4556.41,4869.23,1690,1711,2.746,0,0,0,0,1,0,
61,4269.74,4333.33,4246.15,4054.36,4475.38,4359.49,4779.49,4800.51,4522.05,4117.44,4570.77,4829.74,4551.28,4870.26,1691,1712,2.754,0,0,0,0,1,0,
62,4271.28,4337.44,4246.15,4050.77,4478.97,4357.95,4780.51,4798.97,4521.54,4113.33,4564.1,4829.74,4554.36,4867.69,1690,1712,2.762,0,0,0,0,1,0,
63,4269.74,4340,4246.15,4046.67,4473.33,4361.03,4781.03,4801.03,4526.15,4111.28,4563.08,4831.28,4556.92,4867.69,1692,1713,2.77,0,0,0,0,1,0,
64,4268.72,4333.33,4246.15,4044.62,4470.77,4358.97,4776.41,4802.56,4527.69,4117.95,4565.13,4831.79,4551.79,4872.31,1691,1712,2.778,0,0,0,0,1,0,
65,4270.26,4331.79,4248.21,4044.1,4478.97,4353.85,4775.38,4801.54,4524.62,4114.36,4561.54,4832.31,4546.15,4870.26,1691,1713,2.785,0,0,0,0,1,0,
66,4264.1,4330.26,4242.56,4041.54,4470.26,4352.82,4775.38,4795.9,4521.54,4092.82,4547.69,4830.26,4538.97,4859.49,1691,1712,2.793,0,0,0,0,1,0,
67,4253.33,4321.54,4233.33,4037.44,4458.46,4354.87,4773.33,4794.36,4522.05,4089.23,4537.44,4827.69,4527.18,4855.38,1690,1713,2.801,0,0,0,0,1,0,
68,4253.33,4318.97,4231.79,4034.36,4469.74,4355.38,4772.31,4798.46,4526.15,4105.13,4538.97,4828.21,4525.13,4857.95,1690,1712,2.809,0,0,0,0,1,0,
69,4257.95,4319.49,4233.85,4034.87,4473.85,4349.23,4770.26,4794.87,4524.1,4106.67,4538.46,4829.23,4531.28,4858.46,1689,1712,2.817,0,0,0,0,1,0,
70,4254.36,4313.33,4232.31,4033.33,4457.44,4341.54,4764.1,4785.13,4517.44,4096.92,4533.33,4829.23,4529.74,4858.46,1690,1712,2.825,0,0,0,0,1,0,
71,4251.79,4313.33,4231.79,4032.31,4453.33,4341.03,4759.49,4783.08,4516.92,4098.46,4531.28,4830.26,4527.18,4857.95,1689,1710,2.832,0,0,0,0,1,0,
72,4254.87,4319.49,4231.28,4031.79,4461.03,4344.1,4763.08,4788.72,4522.05,4101.54,4531.79,4828.21,4529.23,4855.38,1690,1712,2.84,0,0,0,0,1,0,
73,4253.85,4319.49,4231.79,4031.28,4462.56,4343.59,4766.67,4787.18,4521.54,4094.87,4526.67,4827.69,4528.72,4850.77,1690,1710,2.848,0,0,0,0,1,0,
74,4251.79,4318.46,4232.31,4034.36,4459.49,4342.05,4764.62,4777.95,4515.9,4085.13,4518.97,4828.21,4518.97,4848.72,1689,1711,2.856,0,0,0,0,1,0,
75,4251.28,4314.87,4225.64,4029.23,4450.26,4340,4755.9,4770.26,4508.72,4078.46,4512.82,4821.03,4512.82,4847.69,1690,1711,2.864,0,0,0,0,1,0,
76,4244.62,4305.13,4220.51,4016.41,4444.1,4337.44,4753.85,4771.79,4505.13,4080,4512.82,4816.41,4513.33,4845.13,1690,1711,2.871,0,0,0,0,1,0,
77,4243.59,4310.77,4220.51,4020,4451.28,4336.92,4761.54,4774.87,4507.18,4087.18,4518.46,4823.08,4512.82,4846.15,1690,1710,2.879,0,0,0,0,1,0,
78,4249.23,4317.95,4225.13,4028.21,4458.97,4338.97,4764.62,4775.38,4507.69,4089.74,4522.05,4828.21,4513.33,4847.69,1690,1712,2.887,0,0,0,0,1,0,
79,4246.67,4310.26,4227.69,4022.05,4454.36,4340.51,4760,4775.9,4507.18,4086.67,4520,4823.59,4511.28,4845.64,1691,1711,2.895,0,0,0,0,1,0,
80,4246.67,4307.69,4224.1,4018.97,4447.69,4341.03,4757.44,4775.38,4507.69,4077.95,4513.85,4817.44,4507.18,4846.15,1690,1713,2.903,0,0,0,0,1,0,
81,4248.72,4312.82,4217.95,4021.54,4449.74,4336.41,4757.44,4769.23,4505.64,4067.69,4506.67,4815.9,4503.59,4845.64,1692,1713,2.911,0,0,0,0,1,0,
82,4241.54,4307.18,4215.38,4020,4448.72,4333.33,4754.87,4766.15,4504.1,4067.69,4505.13,4815.9,4500.51,4842.05,1691,1712,2.918,0,0,0,0,1,0,
83,4237.95,4305.64,4219.49,4020,4444.62,4335.38,4752.82,4771.28,4508.72,4080.51,4509.23,4816.92,4500,4843.08,1692,1713,2.926,0,0,0,0,1,0,
84,4242.05,4309.74,4217.44,4021.03,4440.51,4335.9,4751.79,4767.18,4506.67,4084.62,4505.64,4814.87,4498.97,4843.59,1692,1713,2.934,0,0,0,0,1,0,
85,4236.92,4302.56,4210.26,4014.36,4437.95,4332.31,4751.28,4757.95,4500,4076.92,4496.92,4812.31,4496.92,4835.9,1692,1715,2.942,0,0,0,0,1,0,
86,4228.21,4295.38,4206.67,4008.21,4436.92,4328.21,4747.69,4752.82,4501.54,4072.82,4495.9,4808.72,4490.77,4827.69,1693,1714,2.95,0,0,0,0,1,0,
87,4227.69,4296.41,4206.15,4010.26,4442.05,4328.21,4746.67,4751.28,4499.49,4070.26,4496.92,4807.18,4491.28,4827.18,1692,1715,2.957,0,0,0,0,1,0,
88,4232.31,4299.49,4204.62,4011.79,4446.15,4331.28,4752.82,4753.33,4497.95,4068.72,4496.92,4812.82,4497.44,4831.28,1693,1716,2.965,0,0,0,0,1,0,
89,4229.74,4297.95,4199.49,4007.69,4430.26,4330.26,4750.77,4750.26,4497.44,4061.03,4491.79,4808.21,4487.69,4827.69,1693,1715,2.973,0,0,0,0,1,0,
90,4219.49,4288.21,4198.97,4003.59,4423.08,4326.67,4738.46,4745.64,4490.26,4048.72,4481.03,4796.92,4474.87,4816.92,1693,1714,2.981,0,0,0,0,1,0,
91,4220.51,4286.15,4204.1,4008.21,4441.03,4328.72,4740.51,4749.74,4491.79,4050.77,4480.51,4801.03,4481.54,4821.03,1691,1714,2.989,0,0,0,0,1,0,
92,4231.28,4295.38,4207.18,4015.9,4450.77,4331.79,4748.21,4754.87,4497.95,4057.44,4484.1,4808.21,4488.72,4829.23,1692,1713,2.997,0,0,0,0,1,0,
93,4226.15,4293.85,4203.59,4018.97,4440.51,4329.23,4740,4752.31,4494.87,4052.31,4481.03,4800.51,4476.92,4826.67,1692,1712,3.004,0,0,0,0,1,0,
94,4213.33,4282.56,4199.49,4010.77,4437.95,4327.18,4736.41,4750.26,4491.79,4053.33,4477.95,4794.36,4470.26,4822.56,1691,1713,3.012,0,0,0,0,1,0,
95,4216.41,4282.05,4195.38,3996.41,4444.1,4328.72,4744.62,4754.87,4497.95,4065.64,4481.54,4798.97,4478.46,4820,1691,1711,3.02,0,0,0,0,1,0,
96,4219.49,4289.74,4193.85,3994.36,4444.1,4328.72,4746.15,4755.9,4502.05,4066.67,4486.67,4800.51,4478.46,4820.51,1690,1713,3.028,0,0,0,0,1,0,
97,4214.36,4289.74,4194.87,4000,4436.41,4327.69,4742.05,4753.33,4501.03,4063.08,4486.67,4798.97,4470.77,4821.03,1692,1712,3.036,0,0,0,0,1,0,
98,4214.36,4285.64,4193.85,4002.05,4433.33,4326.67,4738.97,4750.77,4497.44,4067.69,4482.05,4798.46,4471.79,4816.41,1691,1712,3.043,0,0,0,0,1,0,
99,4218.97,4289.74,4196.92,4005.64,4440.51,4327.18,4736.92,4751.28,4494.87,4066.67,4480,4801.03,4480,4815.38,1691,1712,3.051,0,0,0,0,1,0,
100,4217.95,4291.28,4197.95,4005.64,4438.46,4325.13,4736.92,4747.69,4487.69,4053.33,4478.97,4802.56,4476.41,4820,1691,1711,3.059,0,0,0,0,1,0,
101,4214.87,4284.62,4190.77,4000,4431.28,4323.59,4734.87,4740.51,4481.03,4047.18,4474.36,4797.95,4463.08,4813.85,1692,1710,3.067,0,0,0,0,1,0,
102,4218.46,4290.26,4193.85,4002.05,4442.05,4328.21,4735.38,4746.15,4491.28,4058.46,4476.92,4800,4468.21,4813.85,1691,1710,3.075,0,0,0,0,1,0,
103,4225.13,4304.1,4205.13,4010.26,4448.21,4327.18,4738.97,4752.31,4501.03,4061.54,4484.1,4810.26,4480.51,4828.21,1692,1710,3.083,0,0,0,0,1,0,
104,4227.18,4300,4205.13,4010.26,4436.92,4320,4733.33,4741.03,4491.28,4052.82,4480.51,4813.33,4477.44,4830.26,1691,1711,3.09,0,0,0,0,1,0,
105,4224.1,4287.18,4197.95,4003.08,4432.82,4318.46,4730.26,4730.26,4486.67,4055.9,4476.41,4805.64,4473.33,4821.54,1692,1711,3.098,0,0,0,0,1,0,
106,4218.97,4286.15,4198.46,4000.51,4437.95,4318.97,4734.36,4740.51,4493.33,4068.72,4477.44,4798.97,4479.49,4815.9,1691,1711,3.106,0,0,0,0,1,0,
107,4215.38,4286.67,4196.92,3998.46,4434.36,4314.36,4733.33,4748.21,4493.33,4068.72,4473.85,4796.41,4479.49,4812.31,1692,1711,3.114,0,0,0,0,1,0,
108,4215.9,4283.59,4190.77,3997.95,4428.21,4314.36,4731.79,4740.51,4490.77,4063.08,4471.79,4796.41,4472.31,4813.33,1691,1711,3.122,0,0,0,0,1,0,
109,4220.51,4286.67,4193.33,4001.54,4433.85,4320,4736.41,4741.03,4495.38,4070.77,4474.36,4798.46,4473.85,4820,1692,1709,3.13,0,0,0,0,1,0,
110,4218.97,4292.82,4200,4001.54,4441.54,4318.97,4735.38,4745.13,4493.33,4071.79,4472.82,4798.46,4474.87,4820.51,1691,1710,3.137,0,0,0,0,1,0,
111,4214.36,4285.13,4191.79,3992.82,4428.72,4312.31,4727.18,4734.87,4482.05,4052.82,4463.08,4796.92,4465.13,4812.82,1693,1711,3.145,0,0,0,0,1,0,
112,4211.79,4274.87,4181.03,3990.77,4413.85,4310.26,4724.1,4724.1,4478.46,4037.44,4455.9,4794.87,4459.49,4809.23,1693,1710,3.153,0,0,0,0,1,0,
113,4211.79,4281.03,4185.64,3999.49,4425.64,4312.82,4723.08,4728.72,4483.08,4044.62,4456.41,4794.36,4462.05,4809.74,1692,1711,3.161,0,0,0,0,1,0,
114,4210.77,4286.67,4189.74,3994.87,4436.41,4312.31,4724.1,4733.85,4488.21,4054.87,4457.95,4797.44,4464.1,4809.74,1693,1709,3.169,0,0,0,0,1,0,
115,4207.18,4275.9,4181.54,3985.13,4424.1,4307.18,4722.56,4727.69,4484.1,4047.69,4452.31,4792.82,4458.46,4804.1,1692,1709,3.176,0,0,0,0,1,0,
116,4201.03,4267.69,4175.38,3984.1,4417.95,4304.1,4720.51,4724.1,4482.05,4042.05,4444.62,4784.1,4450.77,4797.44,1692,1709,3.184,0,0,0,0,1,0,
117,4198.46,4272.31,4180,3985.64,4424.62,4305.13,4724.1,4730.26,4487.18,4050.77,4447.18,4788.72,4453.85,4800,1691,1709,3.192,0,0,0,0,1,0,
118,4203.08,4273.33,4183.08,3988.21,4421.54,4303.08,4726.15,4733.85,4471.79,4052.31,4449.74,4792.31,4457.95,4805.13,1692,1710,3.2,0,0,0,0,1,0,
119,4203.08,4267.69,4179.49,3989.23,4416.92,4302.05,4724.1,4730.26,4442.56,4041.54,4444.62,4783.59,4456.41,4799.49,1691,1711,3.208,0,0,0,0,1,0,
120,4198.46,4271.28,4177.44,3983.08,4416.92,4305.64,4721.03,4728.21,4435.38,4041.03,4442.56,4780,4455.38,4794.87,1691,1712,3.216,0,0,0,0,1,0,
121,4200,4276.41,4176.92,3981.54,4414.36,4305.13,4718.46,4724.1,4440,4045.64,4444.1,4785.13,4458.97,4798.97,1689,1712,3.223,0,0,0,0,1,0,
122,4199.49,4269.74,4171.28,3983.59,4407.69,4301.03,4711.79,4715.38,4432.31,4033.33,4443.59,4782.56,4456.92,4798.97,1690,1713,3.231,0,0,0,0,1,0,
123,4198.46,4262.56,4168.21,3981.03,4407.18,4301.03,4710.26,4713.85,4433.85,4028.21,4440.51,4780,4456.41,4797.95,1689,1712,3.239,0,0,0,0,1,0,
124,4200.51,4269.23,4176.92,3983.08,4419.49,4301.03,4714.36,4715.38,4443.59,4037.95,4437.95,4783.59,4460.51,4799.49,1689,1714,3.247,0,0,0,0,1,0,
125,4201.03,4273.85,4180.51,3984.62,4426.15,4296.41,4713.33,4714.36,4443.08,4040,4435.38,4782.56,4457.95,4796.41,1690,1712,3.255,0,0,0,0,1,0,
126,4199.49,4268.72,4178.97,3980.51,4417.44,4298.97,4713.33,4718.97,4445.64,4038.46,4437.95,4782.05,4457.95,4796.92,1690,1714,3.262,0,0,0,0,1,0,
127,4202.56,4264.62,4181.03,3978.97,4411.79,4302.05,4715.38,4721.54,4447.69,4042.56,4441.03,4782.05,4466.67,4803.08,1692,1713,3.27,0,0,0,0,1,0,
128,4201.03,4270.26,4178.46,3981.03,4415.38,4300,4715.9,4714.87,4441.54,4046.15,4440,4781.03,4470.77,4803.59,1691,1713,3.278,0,0,0,0,1,0,
0,4195.9,4268.72,4172.31,3976.41,4411.28,4296.92,4712.31,4711.79,4440,4042.56,4442.05,4782.05,4466.15,4798.97,1693,1714,3.286,0,0,0,0,1,0,
1,4195.9,4260,4169.74,3970.77,4405.64,4293.33,4708.21,4714.87,4443.59,4035.9,4444.1,4782.56,4463.08,4796.92,1693,1713,3.294,0,0,0,0,1,0,
2,4193.85,4262.05,4172.82,3972.82,4406.67,4291.79,4705.13,4710.77,4441.03,4033.33,4440,4780.51,4464.62,4796.92,1694,1713,3.302,0,0,0,0,1,0,
3,4192.31,4265.13,4172.31,3974.36,4407.18,4291.28,4705.64,4707.69,4438.46,4033.85,4432.31,4782.56,4460.51,4797.44,1693,1713,3.309,0,0,0,0,1,0,
4,4193.33,4262.05,4171.28,3972.82,4407.18,4292.31,4706.67,4712.82,4440.51,4032.31,4428.21,4783.08,4455.9,4795.38,1694,1712,3.317,0,0,0,0,1,0,
5,4189.74,4258.97,4166.15,3972.82,4398.46,4293.85,4702.05,4708.72,4435.38,4028.21,4424.1,4772.31,4450.77,4785.13,1694,1711,3.325,0,0,0,0,1,0,
6,4181.54,4255.38,4154.36,3974.36,4386.15,4290.77,4698.46,4697.44,4425.13,4023.59,4419.49,4763.59,4438.46,4775.38,1693,1712,3.333,0,0,0,0,1,0,
7,4174.36,4249.23,4151.79,3968.72,4394.36,4283.59,4701.03,4700,4426.67,4023.08,4420,4763.59,4434.87,4776.41,1693,1711,3.341,0,0,0,0,1,0,
8,4175.9,4253.33,4161.03,3964.1,4409.23,4286.15,4705.13,4709.74,4437.95,4027.69,4424.1,4767.69,4442.56,4779.49,1692,1712,3.348,0,0,0,0,1,0,
9,4183.59,4263.59,4164.62,3968.72,4407.69,4294.87,4707.69,4709.74,4438.97,4031.28,4427.69,4771.28,4442.56,4780,1693,1712,3.356,0,0,0,0,1,0,
10,4187.69,4258.46,4160,3967.18,4398.97,4293.33,4706.15,4705.64,4431.28,4025.64,4426.67,4768.72,4436.92,4781.54,1691,1712,3.364,0,0,0,0,1,0,
11,4182.05,4250.77,4161.03,3964.1,4396.41,4289.23,4702.56,4704.62,4433.33,4023.08,4424.1,4768.72,4440.51,4783.08,1692,1712,3.372,0,0,0,0,1,0,
12,4183.08,4254.87,4168.21,3969.23,4398.46,4288.72,4701.54,4704.62,4436.41,4026.15,4428.72,4776.41,4445.64,4783.08,1691,1711,3.38,0,0,0,0,1,0,
13,4194.87,4263.59,4176.41,3978.46,4404.62,4287.69,4703.59,4702.56,4433.85,4027.69,4433.33,4784.62,4449.23,4789.23,1691,1712,3.388,0,0,0,0,1,0,
14,4200,4258.46,4180.51,3976.41,4398.97,4284.1,4705.13,4699.49,4432.82,4027.69,4429.74,4780.51,4449.23,4794.36,1691,1711,3.395,0,0,0,0,1,0,
15,4190.77,4250.77,4174.36,3967.18,4389.23,4281.54,4705.13,4699.49,4433.85,4029.74,4426.67,4770.26,4443.08,4788.21,1691,1711,3.403,0,0,0,0,1,0,
16,4183.08,4251.79,4166.15,3963.08,4393.85,4285.13,4704.62,4701.54,4436.41,4030.77,4425.13,4771.28,4440.51,4782.05,1691,1710,3.411,0,0,0,0,1,0,
17,4186.15,4253.85,4168.21,3963.59,4398.46,4290.26,4702.56,4705.13,4440,4027.18,4427.18,4778.97,4443.08,4783.59,1691,1711,3.419,0,0,0,0,1,0,
18,4188.72,4256.92,4172.82,3969.23,4394.36,4287.18,4701.54,4705.64,4441.03,4025.13,4432.82,4776.92,4443.59,4785.13,1692,1709,3.427,0,0,0,0,1,0,
19,4185.64,4255.9,4167.18,3971.28,4394.36,4281.03,4698.97,4698.97,4435.9,4026.15,4426.67,4767.18,4437.44,4780.51,1690,1710,3.434,0,0,0,0,1,0,
20,4176.41,4249.23,4158.46,3963.08,4390.77,4280,4692.82,4689.23,4427.69,4022.56,4411.79,4764.62,4427.69,4771.28,1693,1711,3.442,0,0,0,0,1,0,
21,4169.23,4244.1,4152.82,3951.28,4385.13,4278.97,4691.79,4689.74,4422.56,4016.41,4407.69,4763.59,4422.56,4764.1,1692,1710,3.45,0,0,0,0,1,0,
22,4170.77,4248.21,4154.36,3955.9,4388.21,4281.03,4694.87,4695.9,4424.1,4013.85,4410.77,4761.03,4422.05,4766.15,1692,1711,3.458,0,0,0,0,1,0,
23,4171.79,4248.72,4154.87,3962.05,4386.67,4282.05,4694.36,4692.82,4425.13,4011.28,4406.67,4763.08,4416.92,4766.67,1692,1710,3.466,0,0,0,0,1,0,
24,4167.18,4242.05,4151.79,3954.87,4382.05,4278.46,4691.79,4689.74,4423.08,4010.26,4406.67,4764.1,4418.97,4763.59,1692,1711,3.474,0,0,0,0,1,0,
25,4172.82,4248.72,4155.9,3958.46,4389.23,4280.51,4695.38,4697.44,4430.77,4020,4416.92,4765.64,4432.82,4769.74,1692,1711,3.481,0,0,0,0,1,0,
26,4181.54,4254.87,4162.05,3963.59,4386.15,4282.56,4693.85,4698.97,4431.79,4022.56,4417.44,4766.15,4432.82,4770.77,1692,1711,3.489,0,0,0,0,1,0,
27,4176.41,4243.08,4157.44,3954.36,4372.82,4279.49,4686.15,4691.28,4419.49,4009.74,4403.08,4764.1,4425.64,4764.1,1692,1711,3.497,0,0,0,0,1,0,
28,4168.72,4237.95,4152.31,3954.36,4375.38,4280,4686.67,4694.36,4418.97,4008.72,4399.49,4764.1,4428.21,4763.08,1692,1711,3.505,0,0,0,0,1,0,
29,4169.23,4243.08,4156.41,3965.13,4389.23,4280,4693.85,4706.15,4431.79,4022.56,4409.23,4766.15,4431.28,4766.67,1693,1711,3.513,0,0,0,0,1,0,
30,4171.28,4238.97,4156.92,3957.44,4391.28,4276.92,4691.79,4706.67,4431.79,4023.59,4407.18,4763.59,4430.77,4766.15,1693,1711,3.52,0,0,0,0,1,0,
31,4170.26,4236.92,4152.82,3948.72,4380,4276.92,4683.59,4699.49,4421.54,4011.28,4401.54,4758.46,4430.26,4765.13,1693,1711,3.528,0,0,0,0,1,0,
32,4168.21,4242.05,4153.33,3959.49,4372.82,4273.33,4682.05,4696.92,4423.59,4006.67,4405.64,4759.49,4430.77,4764.1,1692,1711,3.536,0,0,0,0,1,0,
33,4167.69,4240.51,4154.36,3955.9,4381.03,4270.77,4684.1,4699.49,4429.23,4011.28,4406.15,4763.08,4432.31,4761.03,1693,1711,3.544,0,0,0,0,1,0,
34,4168.72,4237.95,4152.82,3943.08,4383.59,4276.41,4683.08,4697.95,4425.64,4015.38,4402.05,4765.13,4436.92,4760,1693,1712,3.552,0,0,0,0,1,0,
35,4165.64,4240,4150.26,3947.18,4376.92,4275.38,4686.15,4697.44,4422.05,4013.85,4402.05,4762.05,4434.36,4756.92,1693,1711,3.56,0,0,0,0,1,0,
36,4157.95,4234.87,4145.64,3950.26,4376.41,4273.33,4691.28,4703.59,4424.1,4011.28,4403.59,4753.85,4427.69,4751.28,1692,1712,3.567,0,0,0,0,1,0,
37,4153.85,4226.67,4139.49,3941.54,4374.87,4275.9,4688.21,4702.56,4425.64,4009.74,4400.51,4748.72,4425.64,4748.21,1692,1710,3.575,0,0,0,0,1,0,
38,4153.85,4230.26,4136.41,3941.03,4373.33,4274.36,4684.1,4696.92,4424.1,4008.21,4394.87,4749.74,4428.72,4748.72,1692,1711,3.583,0,0,0,0,1,0,
39,4157.95,4241.03,4143.08,3951.28,4383.08,4274.36,4687.18,4700.51,4425.13,4005.13,4395.38,4752.31,4434.87,4750.77,1693,1711,3.591,0,0,0,0,1,0,
40,4160,4243.08,4146.15,3952.82,4384.1,4273.85,4686.67,4703.08,4425.64,4005.64,4399.49,4751.28,4435.9,4747.69,1691,1710,3.599,0,0,0,0,1,0,
41,4156.92,4232.82,4145.13,3945.64,4375.38,4270.26,4680.51,4696.92,4424.1,4011.28,4401.54,4750.77,4429.74,4746.67,1692,1712,3.607,0,0,0,0,1,0,
42,4153.85,4228.72,4145.64,3942.05,4376.41,4270.77,4678.97,4691.79,4422.56,4013.85,4400,4751.79,4426.67,4748.21,1691,1711,3.614,0,0,0,0,1,0,
43,4151.28,4233.85,4143.59,3946.67,4375.38,4270.26,4681.54,4689.74,4419.49,4005.64,4395.38,4749.74,4425.64,4743.59,1691,1711,3.622,0,0,0,0,1,0,
44,4151.79,4231.28,4136.92,3947.18,4368.21,4265.13,4680.51,4683.08,4414.87,3996.92,4386.67,4743.59,4420.51,4733.85,1692,1711,3.63,0,0,0,0,1,0,
45,4148.72,4228.72,4133.33,3938.97,4367.18,4265.64,4676.41,4674.36,4412.31,3997.44,4381.03,4735.38,4414.87,4731.79,1691,1712,3.639,0,0,0,0,1,0,
46,4144.1,4230.26,4132.31,3933.33,4367.69,4270.77,4677.95,4677.95,4415.9,3997.95,4386.15,4734.87,4417.44,4733.33,1692,1711,3.646,0,0,0,0,1,0,
47,4145.64,4229.74,4131.79,3936.41,4369.74,4272.31,4681.54,4683.59,4422.05,3997.95,4391.79,4743.08,4424.1,4733.33,1691,1712,3.653,0,0,0,0,1,0,
48,4150.77,4233.33,4138.46,3942.56,4380.51,4272.82,4684.62,4673.85,4427.69,4006.67,4393.85,4748.72,4430.26,4736.92,1693,1712,3.661,0,0,0,0,1,0,
49,4151.79,4237.44,4141.54,3946.67,4380.51,4267.18,4685.13,4664.1,4427.69,4012.82,4394.36,4744.62,4429.74,4738.46,1691,1712,3.669,0,0,0,0,1,0,
50,4147.18,4230.77,4133.33,3942.56,4363.59,4262.05,4678.97,4666.67,4420.51,4005.13,4388.21,4738.97,4422.05,4734.36,1692,1712,3.677,0,0,0,0,1,0,
51,4141.03,4227.18,4129.23,3931.28,4358.97,4265.64,4673.33,4675.9,4412.82,3995.9,4385.13,4736.92,4420.51,4733.33,1690,1711,3.685,0,0,0,0,1,0,
52,4136.92,4228.21,4129.23,3929.23,4371.79,4263.08,4673.85,4684.1,4409.74,3993.33,4388.21,4735.9,4425.13,4732.31,1691,1713,3.693,0,0,0,0,1,0,
53,4138.97,4224.1,4127.18,3938.97,4375.38,4254.36,4675.9,4691.79,4412.82,3998.97,4389.23,4735.9,4427.69,4731.79,1691,1712,3.7,0,0,0,0,1,0,
54,4140,4225.64,4128.21,3944.1,4362.56,4254.36,4672.31,4694.87,4415.9,4004.1,4387.18,4736.92,4425.13,4733.33,1691,1714,3.708,0,0,0,0,1,0,
55,4137.44,4234.87,4132.31,3936.92,4360.51,4261.54,4670.26,4698.97,4417.44,4002.05,4388.72,4737.95,4425.13,4733.33,1691,1712,3.716,0,0,0,0,1,0,
56,4140.51,4237.95,4129.74,3931.79,4375.9,4266.67,4676.41,4707.18,4420,4003.59,4391.28,4739.49,4430.77,4734.36,1690,1713,3.724,0,0,0,0,1,0,
57,4141.03,4230.77,4124.62,3936.41,4375.38,4264.1,4676.92,4702.05,4415.9,4001.54,4387.18,4736.92,4429.74,4734.87,1690,1712,3.732,0,0,0,0,1,0,
58,4135.9,4219.49,4122.05,3936.92,4361.54,4257.44,4668.72,4693.33,4406.67,3992.82,4378.97,4732.82,4423.59,4728.21,1691,1713,3.739,0,0,0,0,1,0,
59,4133.85,4221.03,4124.62,3927.69,4358.46,4257.95,4669.74,4697.44,4406.67,3991.79,4380,4733.85,4423.08,4722.56,1691,1712,3.747,0,0,0,0,1,0,
60,4138.46,4230.77,4128.72,3922.56,4368.72,4262.56,4676.92,4704.1,4416.92,3999.49,4389.23,4736.92,4428.21,4730.26,1690,1712,3.755,0,0,0,0,1,0,
61,4141.03,4227.69,4130.26,3928.21,4374.36,4261.03,4673.85,4705.13,4421.54,4005.13,4391.79,4738.97,4429.23,4738.46,1691,1713,3.763,0,0,0,0,1,0,
62,4140.51,4224.1,4133.85,3934.36,4370.26,4256.92,4668.72,4703.08,4415.9,4006.15,4387.18,4745.13,4433.33,4735.38,1691,1711,3.771,0,0,0,0,1,0,
63,4139.49,4227.69,4132.31,3931.79,4364.62,4253.33,4666.67,4700.51,4412.82,3995.9,4388.21,4744.1,4437.95,4729.74,1691,1713,3.779,0,0,0,0,1,0,
64,4135.9,4222.56,4126.15,3928.21,4362.56,4254.36,4663.59,4696.41,4412.82,3990.26,4388.21,4734.87,4435.9,4728.21,1691,1711,3.786,0,0,0,0,1,0,
65,4135.38,4218.97,4129.23,3932.82,4365.64,4258.97,4667.69,4697.44,4411.79,4004.1,4384.1,4737.44,4435.38,4730.77,1690,1712,3.794,0,0,0,0,1,0,
66,4140,4227.18,4135.9,3939.49,4368.72,4260,4673.85,4702.05,4414.87,4012.82,4386.67,4745.13,4441.03,4735.38,1692,1711,3.802,0,0,0,0,1,0,
67,4140,4229.74,4134.87,3934.36,4371.28,4257.95,4670.26,4703.08,4414.87,4006.15,4390.26,4741.54,4443.08,4735.9,1691,1711,3.81,0,0,0,0,1,0,
68,4140,4230.26,4131.79,3929.23,4375.9,4261.54,4667.18,4701.03,4409.23,4005.13,4388.21,4738.97,4440.51,4734.36,1692,1711,3.818,0,0,0,0,1,0,
69,4142.56,4236.41,4133.33,3932.31,4375.9,4257.95,4670.77,4696.41,4402.56,4001.03,4385.13,4741.03,4439.49,4736.92,1692,1709,3.825,0,0,0,0,1,0,
70,4137.95,4230.77,4130.77,3932.82,4360.51,4245.13,4661.54,4689.23,4394.87,3986.67,4378.97,4734.36,4433.85,4730.77,1692,1710,3.833,0,0,0,0,1,0,
71,4131.79,4219.49,4124.62,3928.72,4349.74,4245.64,4648.72,4685.13,4396.41,3984.1,4373.85,4731.28,4427.69,4722.56,1692,1711,3.841,0,0,0,0,1,0,
72,4134.36,4222.05,4125.13,3929.23,4360.51,4250.26,4653.33,4689.23,4407.18,3987.18,4375.38,4734.36,4432.31,4727.18,1692,1711,3.849,0,0,0,0,1,0,
73,4134.87,4228.21,4127.18,3930.77,4368.21,4246.15,4657.95,4689.74,4406.15,3987.18,4377.95,4732.82,4434.87,4728.72,1692,1711,3.857,0,0,0,0,1,0,
74,4131.79,4227.18,4127.69,3931.79,4364.1,4245.64,4654.87,4689.23,4398.97,3988.72,4377.44,4732.82,4431.79,4723.59,1691,1711,3.865,0,0,0,0,1,0,
75,4135.9,4227.69,4132.82,3932.31,4361.54,4254.36,4656.92,4699.49,4406.67,3991.79,4377.95,4735.9,4435.38,4729.74,1693,1709,3.872,0,0,0,0,1,0,
76,4138.97,4230.77,4132.82,3932.31,4362.56,4255.9,4657.95,4701.54,4408.72,3992.82,4376.41,4734.36,4442.56,4731.79,1691,1711,3.88,0,0,0,0,1,0,
77,4133.85,4226.67,4125.64,3931.79,4365.13,4247.18,4651.79,4693.33,4402.05,3995.9,4373.33,4732.31,4437.95,4723.59,1692,1711,3.888,0,0,0,0,1,0,
78,4131.79,4228.72,4125.64,3931.28,4369.74,4244.62,4651.79,4694.87,4405.13,3997.95,4370.77,4732.82,4436.41,4725.64,1691,1712,3.896,0,0,0,0,1,0,
79,4137.95,4234.87,4132.82,3930.77,4367.69,4249.23,4660,4696.41,4405.13,3993.85,4370.26,4734.87,4444.1,4731.79,1691,1714,3.904,0,0,0,0,1,0,
80,4137.95,4227.18,4132.31,3927.18,4364.1,4251.28,4659.49,4690.26,4398.97,3991.79,4374.36,4735.38,4444.1,4728.72,1690,1714,3.911,0,0,0,0,1,0,
81,4129.23,4218.46,4123.59,3923.08,4360,4248.21,4655.38,4686.15,4397.44,3989.74,4375.9,4733.85,4437.95,4721.54,1690,1714,3.919,0,0,0,0,1,0,
82,4126.15,4223.08,4125.13,3927.69,4353.33,4252.31,4655.38,4687.69,4398.46,3988.21,4368.72,4733.33,4436.92,4720,1690,1713,3.927,0,0,0,0,1,0,
83,4134.87,4229.74,4133.85,3936.41,4362.05,4257.44,4660.51,4693.85,4405.13,3992.31,4367.18,4734.87,4443.08,4727.69,1691,1713,3.935,0,0,0,0,1,0,
84,4141.54,4232.82,4134.36,3935.38,4374.36,4255.38,4662.56,4698.46,4410.77,3994.36,4371.28,4734.87,4448.72,4731.79,1691,1712,3.943,0,0,0,0,1,0,
85,4138.97,4231.79,4128.72,3926.67,4372.82,4254.36,4658.46,4697.95,4406.15,3994.36,4368.72,4735.38,4446.67,4729.74,1692,1712,3.951,0,0,0,0,1,0,
86,4134.87,4227.69,4130.26,3925.13,4369.23,4254.87,4657.44,4694.87,4400.51,3995.9,4365.64,4732.82,4439.49,4729.23,1691,1712,3.958,0,0,0,0,1,0,
87,4137.44,4220,4129.23,3928.21,4372.82,4256.92,4662.56,4694.87,4404.62,3994.87,4366.67,4730.26,4438.46,4726.67,1692,1711,3.966,0,0,0,0,1,0,
88,4135.9,4216.41,4123.59,3928.21,4370.77,4258.97,4665.13,4697.44,4404.62,3990.77,4365.13,4728.72,4439.49,4718.97,1691,1712,3.974,0,0,0,0,1,0,
89,4125.13,4217.44,4123.08,3924.62,4362.05,4255.38,4660.51,4697.95,4398.97,3985.64,4360,4724.1,4430.26,4716.92,1692,1712,3.982,0,0,0,0,1,0,
90,4122.56,4215.38,4123.08,3923.08,4355.38,4251.79,4660.51,4695.38,4399.49,3984.1,4358.46,4723.59,4426.15,4721.03,1691,1711,3.99,0,0,0,0,1,0,
91,4133.85,4214.36,4124.62,3923.08,4360.51,4254.87,4667.18,4696.41,4404.1,3987.69,4365.13,4731.28,4436.41,4722.56,1692,1712,3.997,0,0,0,0,1,0,
92,4137.44,4220,4131.28,3926.67,4372.31,4255.38,4669.23,4700,4408.72,3997.44,4375.9,4734.87,4444.62,4727.18,1691,1711,4.005,0,0,0,0,1,0,
93,4133.85,4223.08,4132.31,3924.62,4365.13,4250.77,4661.03,4697.95,4410.26,4000.51,4377.95,4732.82,4443.59,4730.26,1691,1712,4.013,0,0,0,0,1,0,
94,4135.38,4217.44,4125.64,3916.92,4349.74,4251.79,4652.82,4697.95,4407.69,3998.97,4372.82,4732.82,4443.08,4724.1,1692,1710,4.021,0,0,0,0,1,0,
95,4139.49,4214.87,4127.69,3916.92,4361.03,4250.77,4653.33,4705.13,4406.15,4004.1,4376.41,4734.87,4444.62,4722.05,1690,1712,4.029,0,0,0,0,1,0,
96,4137.44,4217.44,4134.87,3927.69,4375.9,4247.69,4654.87,4710.77,4410.77,4006.67,4380,4734.87,4441.03,4728.72,1692,1711,4.037,0,0,0,0,1,0,
97,4134.36,4217.95,4134.87,3931.79,4367.69,4249.23,4653.33,4707.69,4413.33,3999.49,4371.28,4734.87,4435.38,4727.18,1690,1711,4.044,0,0,0,0,1,0,
98,4135.38,4222.05,4133.33,3926.67,4357.95,4248.21,4652.31,4700.51,4404.62,3995.38,4366.67,4733.85,4432.31,4718.97,1690,1712,4.052,0,0,0,0,1,0,
99,4132.82,4225.13,4131.79,3927.18,4362.56,4247.69,4651.28,4697.95,4396.92,3997.44,4368.21,4730.77,4432.31,4720,1690,1712,4.06,0,0,0,0,1,0,
100,4128.72,4219.49,4127.69,3927.18,4367.18,4254.87,4653.85,4696.92,4399.49,3990.77,4362.05,4727.18,4429.74,4721.54,1690,1712,4.068,0,0,0,0,1,0,
101,4131.28,4215.38,4128.21,3924.62,4365.13,4257.44,4658.97,4697.95,4403.08,3984.62,4359.49,4727.69,4426.15,4718.46,1690,1712,4.076,0,0,0,0,1,0,
102,4137.95,4218.46,4134.87,3926.67,4363.08,4250.77,4660.51,4702.05,4399.49,3992.31,4367.18,4733.33,4430.26,4720.51,1690,1711,4.084,0,0,0,0,1,0,
103,4137.95,4217.95,4136.41,3926.67,4361.54,4249.74,4658.97,4708.21,4399.49,3999.49,4371.79,4735.38,4436.41,4725.13,1690,1710,4.091,0,0,0,0,1,0,
104,4136.41,4215.38,4135.38,3924.62,4360,4252.31,4655.9,4712.82,4406.67,3998.97,4374.87,4734.36,4437.95,4726.67,1690,1712,4.099,0,0,0,0,1,0,
105,4140,4216.92,4135.9,3926.67,4362.56,4253.85,4656.92,4716.92,4412.82,4002.05,4378.97,4734.87,4438.97,4728.21,1691,1710,4.107,0,0,0,0,1,0,
106,4139.49,4218.46,4133.85,3928.72,4371.28,4256.41,4659.49,4716.92,4408.72,4011.79,4373.33,4734.36,4440.51,4729.23,1690,1710,4.115,0,0,0,0,1,0,
107,4137.95,4219.49,4135.38,3928.72,4372.31,4256.41,4657.95,4713.33,4402.56,4012.82,4365.64,4733.33,4436.92,4724.62,1692,1709,4.123,0,0,0,0,1,0,
108,4139.49,4218.46,4136.41,3928.72,4357.95,4254.87,4652.82,4709.23,4402.56,4002.56,4366.67,4734.36,4428.72,4718.97,1690,1708,4.13,0,0,0,0,1,0,
109,4133.33,4214.36,4128.21,3925.64,4348.21,4252.82,4649.74,4703.59,4401.03,3995.38,4366.67,4728.72,4426.67,4720,1690,1709,4.138,0,0,0,0,1,0,
110,4128.72,4215.9,4125.13,3923.59,4361.03,4252.82,4650.77,4701.54,4398.46,3998.97,4361.03,4722.56,4429.23,4720.51,1690,1709,4.146,0,0,0,0,1,0,
111,4132.82,4221.03,4130.77,3925.64,4376.41,4255.9,4652.31,4703.59,4400,4003.59,4358.97,4727.18,4428.72,4717.44,1690,1711,4.154,0,0,0,0,1,0,
112,4134.36,4221.03,4129.23,3927.69,4375.9,4256.92,4654.36,4705.64,4403.08,3996.92,4363.59,4730.77,4427.18,4718.46,1690,1710,4.162,0,0,0,0,1,0,
113,4127.69,4218.97,4123.08,3929.23,4369.23,4253.33,4653.85,4705.64,4401.03,3992.82,4364.62,4723.08,4424.1,4721.03,1690,1712,4.17,0,0,0,0,1,0,
114,4122.56,4213.85,4119.49,3922.05,4363.59,4248.72,4649.23,4700.51,4397.44,3994.36,4357.44,4718.46,4416.92,4713.85,1690,1711,4.177,0,0,0,0,1,0,
115,4122.56,4211.79,4118.97,3915.38,4361.03,4248.72,4647.18,4697.95,4399.49,3993.33,4357.44,4720,4411.28,4705.64,1689,1713,4.185,0,0,0,0,1,0,
116,4122.05,4212.82,4118.97,3917.95,4360,4252.82,4649.74,4702.05,4401.54,3995.38,4362.05,4719.49,4411.28,4708.72,1690,1711,4.193,0,0,0,0,1,0,
117,4120,4206.15,4120.51,3916.92,4357.44,4254.36,4652.82,4704.1,4398.97,3995.38,4360,4717.95,4410.77,4714.87,1689,1712,4.201,0,0,0,0,1,0,
118,4127.69,4208.72,4129.23,3918.97,4360,4253.85,4656.92,4707.69,4402.56,3998.46,4363.59,4725.64,4418.46,4721.03,1690,1713,4.209,0,0,0,0,1,0,
119,4136.92,4215.9,4136.92,3926.67,4362.56,4257.95,4662.56,4714.87,4407.69,4008.21,4377.44,4733.33,4426.15,4725.64,1689,1711,4.216,0,0,0,0,1,0,
120,4131.79,4205.64,4132.31,3925.13,4358.46,4259.49,4661.03,4711.28,4400.51,4007.69,4373.33,4727.18,4415.9,4720.51,1689,1712,4.224,0,0,0,0,1,0,
121,4125.13,4200,4129.23,3919.49,4360.51,4256.92,4655.38,4701.54,4393.85,3994.87,4354.87,4720,4404.62,4713.85,1690,1711,4.232,0,0,0,0,1,0,
122,4130.26,4210.77,4134.36,3920,4366.67,4254.36,4656.92,4699.49,4395.38,3990.26,4354.36,4722.05,4408.72,4714.36,1690,1711,4.24,0,0,0,0,1,0,
123,4127.18,4207.69,4130.26,3922.05,4360.51,4251.28,4656.92,4698.46,4393.33,3990.26,4364.1,4722.05,4408.21,4713.85,1691,1710,4.248,0,0,0,0,1,0,
124,4117.95,4195.9,4123.59,3918.97,4351.28,4249.23,4652.82,4690.77,4391.79,3988.72,4360.51,4718.46,4397.95,4706.67,1691,1712,4.256,0,0,0,0,1,0,
125,4121.03,4198.97,4126.15,3914.36,4350.77,4252.82,4650.26,4682.05,4394.87,3994.87,4359.49,4719.49,4396.92,4707.69,1692,1712,4.263,0,0,0,0,1,0,
126,4125.64,4209.74,4125.13,3911.28,4355.38,4256.92,4649.23,4680,4393.85,3996.41,4366.67,4721.54,4405.13,4715.38,1691,1712,4.271,0,0,0,0,1,0,
127,4122.56,4210.77,4123.08,3916.92,4362.56,4255.38,4649.74,4679.49,4395.9,3990.26,4364.62,4721.03,4406.67,4713.33,1691,1711,4.279,0,0,0,0,1,0,
128,4120.51,4205.64,4124.62,3920.51,4364.62,4255.38,4649.74,4676.92,4401.54,3989.74,4356.92,4719.49,4400,4707.69,1691,1712,4.287,0,0,0,0,1,0,
0,4119.49,4206.15,4122.56,3914.87,4360.51,4257.44,4649.74,4678.97,4397.95,3987.69,4358.46,4717.95,4396.92,4708.72,1691,1712,4.295,0,0,0,0,1,0,
1,4121.03,4209.74,4123.59,3914.36,4355.9,4257.44,4651.79,4688.21,4392.31,3984.1,4360.51,4718.46,4401.03,4710.26,1690,1711,4.302,0,0,0,0,1,0,
2,4122.05,4206.15,4124.62,3914.36,4353.33,4254.36,4652.82,4694.36,4394.36,3982.05,4353.33,4719.49,4400.51,4706.15,1690,1712,4.31,0,0,0,0,1,0,
3,4116.41,4199.49,4119.49,3909.23,4352.31,4250.26,4652.82,4693.85,4390.77,3982.56,4350.77,4714.87,4395.9,4705.64,1690,1711,4.318,0,0,0,0,1,0,
4,4111.28,4201.54,4116.41,3908.72,4348.21,4250.26,4650.77,4696.92,4386.15,3984.1,4357.44,4711.28,4395.38,4706.15,1689,1712,4.326,0,0,0,0,1,0,
5,4115.38,4205.64,4120.51,3915.9,4344.1,4251.79,4647.69,4697.95,4390.26,3986.67,4361.03,4714.36,4397.44,4703.08,1689,1712,4.334,0,0,0,0,1,0,
6,4121.03,4205.64,4123.08,3918.97,4352.82,4251.79,4649.23,4696.41,4393.33,3990.26,4360.51,4716.41,4400,4704.62,1688,1712,4.342,0,0,0,0,1,0,
7,4120.51,4202.56,4120.51,3908.72,4359.49,4252.31,4650.26,4696.41,4391.79,3993.33,4361.03,4711.79,4401.54,4706.67,1689,1712,4.349,0,0,0,0,1,0,
8,4111.79,4195.9,4115.38,3903.59,4348.21,4251.79,4645.64,4699.49,4394.87,3990.77,4360.51,4707.18,4400,4703.59,1689,1712,4.357,0,0,0,0,1,0,
9,4110.77,4193.85,4113.85,3910.77,4343.59,4250.26,4646.15,4700.51,4397.44,3991.28,4360,4711.28,4401.03,4703.59,1689,1712,4.365,0,0,0,0,1,0,
10,4121.03,4201.03,4120.51,3914.87,4353.85,4251.28,4651.28,4697.44,4391.79,3999.49,4363.59,4715.9,4406.15,4707.69,1689,1711,4.373,0,0,0,0,1,0,
11,4119.49,4203.59,4120,3909.23,4352.31,4253.33,4645.64,4691.28,4383.59,3994.87,4364.1,4709.74,4403.59,4706.15,1690,1711,4.381,0,0,0,0,1,0,
12,4111.28,4196.92,4114.87,3906.67,4346.67,4253.85,4638.97,4685.64,4382.56,3981.03,4360.51,4706.15,4396.41,4703.08,1690,1711,4.388,0,0,0,0,1,0,
13,4115.38,4197.95,4118.46,3911.28,4354.87,4256.92,4643.59,4684.62,4384.62,3981.03,4360.51,4711.28,4396.41,4702.56,1691,1711,4.396,0,0,0,0,1,0,
14,4116.41,4204.62,4118.97,3914.36,4362.05,4255.9,4647.69,4688.72,4386.15,3983.59,4362.56,4711.28,4398.97,4703.08,1691,1712,4.404,0,0,0,0,1,0,
15,4104.62,4201.54,4106.67,3908.21,4352.31,4249.74,4642.56,4688.21,4387.18,3973.33,4354.87,4700.51,4392.82,4699.49,1691,1712,4.412,0,0,0,0,1,0,
16,4101.03,4190.26,4102.56,3898.97,4342.56,4251.79,4638.46,4685.13,4387.18,3975.9,4349.23,4698.46,4388.21,4693.85,1691,1713,4.42,0,0,0,0,1,0,
17,4102.56,4190.26,4107.69,3905.13,4349.23,4251.79,4638.46,4687.18,4386.67,3991.28,4352.31,4702.56,4391.79,4690.77,1692,1712,4.428,0,0,0,0,1,0,
18,4100,4194.36,4105.64,3911.28,4351.79,4245.64,4636.92,4684.62,4383.59,3988.72,4353.33,4701.03,4392.31,4688.72,1691,1713,4.435,0,0,0,0,1,0,
19,4104.1,4191.28,4103.08,3902.56,4344.62,4248.21,4634.87,4675.38,4380.51,3976.92,4355.9,4700,4390.26,4688.72,1692,1712,4.443,0,0,0,0,1,0,
20,4107.69,4191.79,4107.18,3898.46,4345.64,4249.74,4634.36,4673.85,4381.54,3980,4359.49,4701.54,4388.72,4694.87,1691,1712,4.451,0,0,0,0,1,0,
21,4106.67,4195.38,4110.77,3903.08,4351.79,4248.21,4634.87,4682.56,4383.08,3984.1,4361.54,4702.56,4390.77,4701.03,1691,1713,4.459,0,0,0,0,1,0,
22,4107.69,4194.87,4109.74,3904.62,4348.21,4250.26,4635.9,4691.79,4385.64,3978.46,4364.1,4703.59,4395.9,4698.46,1692,1712,4.467,0,0,0,0,1,0,
23,4106.15,4192.31,4107.69,3901.03,4343.08,4248.72,4638.97,4697.95,4388.21,3977.44,4364.62,4702.05,4394.36,4692.82,1691,1712,4.475,0,0,0,0,1,0,
24,4105.64,4195.38,4111.28,3901.03,4346.67,4250.26,4646.67,4701.54,4390.77,3984.62,4364.62,4702.05,4392.31,4698.97,1692,1712,4.482,0,0,0,0,1,0,
25,4112.82,4197.95,4118.97,3906.15,4349.23,4255.9,4650.26,4702.05,4390.77,3992.31,4373.33,4705.13,4398.46,4706.15,1691,1712,4.49,0,0,0,0,1,0,
26,4114.36,4201.03,4116.41,3908.21,4349.74,4255.38,4643.59,4696.41,4387.69,3990.77,4381.54,4705.64,4400,4701.54,1691,1712,4.498,0,0,0,0,1,0,
27,4107.69,4203.08,4109.74,3905.13,4348.72,4250.26,4637.95,4691.79,4386.15,3982.05,4380.51,4701.03,4392.82,4694.36,1691,1712,4.506,0,0,0,0,1,0,
28,4107.69,4199.49,4112.31,3908.21,4343.08,4247.18,4638.97,4691.79,4385.64,3977.95,4381.03,4702.05,4390.77,4697.95,1692,1711,4.514,0,0,0,0,1,0,
29,4111.28,4201.54,4113.85,3914.36,4343.08,4249.23,4638.46,4692.82,4382.05,3981.54,4384.62,4705.13,4396.41,4704.1,1691,1711,4.521,0,0,0,0,1,0,
30,4107.18,4205.13,4112.82,3907.69,4355.9,4251.79,4637.95,4692.31,4375.38,3976.92,4387.18,4703.08,4395.38,4702.05,1692,1710,4.529,0,0,0,0,1,0,
31,4106.15,4206.67,4114.87,3905.64,4362.56,4250.77,4641.03,4692.82,4377.95,3967.69,4389.23,4703.08,4389.74,4697.44,1690,1710,4.537,0,0,0,0,1,0,
32,4108.72,4205.64,4115.38,3910.77,4351.79,4248.21,4638.46,4690.77,4384.1,3972.82,4385.64,4703.59,4388.21,4697.44,1691,1712,4.545,0,0,0,0,1,0,
33,4105.13,4197.95,4113.85,3907.69,4341.03,4246.67,4631.79,4687.69,4380,3983.59,4384.62,4700,4391.28,4696.92,1691,1710,4.553,0,0,0,0,1,0,
34,4102.05,4191.79,4115.38,3906.15,4342.05,4247.18,4633.33,4691.28,4380.51,3987.18,4391.28,4701.54,4393.85,4696.92,1690,1712,4.561,0,0,0,0,1,0,
35,4105.13,4194.36,4115.9,3908.72,4348.72,4253.33,4641.54,4696.92,4386.15,3986.67,4395.9,4706.67,4394.36,4699.49,1690,1711,4.568,0,0,0,0,1,0,
36,4105.13,4200.51,4117.95,3909.23,4350.77,4254.36,4644.62,4696.92,4383.08,3983.59,4394.36,4706.67,4394.87,4702.05,1690,1711,4.576,0,0,0,0,1,0,
37,4105.64,4200,4123.08,3908.21,4347.69,4250.26,4643.08,4696.92,4378.46,3981.03,4395.9,4707.18,4396.92,4704.1,1691,1712,4.584,0,0,0,0,1,0,
38,4112.82,4199.49,4122.05,3907.69,4347.18,4254.36,4642.56,4699.49,4383.59,3987.69,4403.08,4712.31,4403.59,4708.21,1691,1711,4.592,0,0,0,0,1,0,
39,4113.33,4203.08,4122.05,3908.21,4351.79,4257.44,4646.15,4703.59,4389.23,3994.36,4405.64,4714.36,4407.69,4709.23,1691,1711,4.6,0,0,0,0,1,0,
40,4111.28,4202.56,4123.08,3910.26,4351.28,4256.41,4649.23,4704.62,4386.67,3993.85,4406.67,4711.28,4406.67,4708.21,1690,1712,4.607,0,0,0,0,1,0,
41,4113.85,4200.51,4121.03,3910.26,4343.59,4257.95,4646.67,4701.54,4383.59,3995.38,4408.72,4710.26,4405.13,4708.72,1691,1712,4.615,0,0,0,0,1,0,
42,4111.79,4202.56,4121.03,3908.72,4344.1,4258.46,4645.64,4699.49,4386.67,4001.54,4408.72,4711.28,4405.64,4707.69,1691,1711,4.623,0,0,0,0,1,0,
43,4107.69,4203.08,4123.59,3912.82,4353.85,4254.36,4643.59,4697.95,4389.74,3998.97,4405.13,4706.15,4402.05,4707.18,1691,1713,4.631,0,0,0,0,1,0,
44,4106.67,4200.51,4119.49,3908.21,4356.41,4250.77,4636.92,4691.79,4385.13,3983.59,4399.49,4700.51,4394.36,4704.62,1691,1710,4.639,0,0,0,0,1,0,
45,4103.59,4200.51,4114.87,3901.03,4349.74,4256.41,4635.9,4689.23,4381.54,3974.87,4391.28,4702.05,4393.33,4698.97,1691,1712,4.647,0,0,0,0,1,0,
46,4100.51,4200,4117.44,3905.13,4344.62,4260.51,4639.49,4690.77,4384.1,3977.44,4380,4702.05,4393.33,4697.95,1691,1711,4.654,0,0,0,0,1,0,
47,4102.05,4198.46,4119.49,3907.18,4344.1,4253.85,4635.9,4687.69,4382.05,3978.97,4372.82,4700.51,4386.67,4699.49,1691,1711,4.662,0,0,0,0,1,0,
48,4103.08,4200.51,4117.95,3901.03,4348.72,4253.33,4637.44,4686.15,4377.95,3980.51,4370.26,4702.56,4383.59,4700,1691,1712,4.67,0,0,0,0,1,0,
49,4104.1,4202.05,4120.51,3899.49,4353.85,4257.44,4644.62,4687.69,4378.46,3983.59,4367.18,4704.62,4386.15,4703.08,1690,1711,4.678,0,0,0,0,1,0,
50,4106.15,4204.1,4123.59,3903.08,4350.26,4252.31,4640,4687.18,4378.46,3984.1,4364.62,4703.59,4390.26,4706.15,1691,1711,4.686,0,0,0,0,1,0,
51,4105.64,4207.18,4121.54,3907.69,4348.21,4251.28,4634.36,4684.62,4376.92,3984.1,4363.08,4703.59,4391.28,4703.08,1690,1712,4.693,0,0,0,0,1,0,
52,4105.13,4204.62,4121.03,3912.82,4348.72,4255.38,4636.41,4685.64,4376.92,3984.62,4358.97,4704.62,4388.72,4702.56,1690,1713,4.701,0,0,0,0,1,0,
53,4105.64,4197.44,4123.08,3912.82,4344.62,4254.36,4632.82,4688.21,4377.95,3982.05,4356.92,4703.08,4386.15,4704.62,1690,1713,4.709,0,0,0,0,1,0,
54,4103.59,4196.92,4118.46,3905.64,4344.62,4254.36,4631.28,4690.77,4378.46,3981.03,4357.95,4701.03,4386.67,4702.05,1690,1714,4.717,0,0,0,0,1,0,
55,4100.51,4200.51,4113.33,3898.97,4349.23,4258.46,4634.87,4692.82,4378.97,3983.08,4357.95,4700.51,4387.69,4697.44,1690,1713,4.725,0,0,0,0,1,0,
56,4103.08,4204.62,4117.95,3902.05,4351.28,4258.46,4635.9,4691.79,4378.97,3986.15,4356.92,4703.59,4388.72,4701.03,1689,1715,4.733,0,0,0,0,1,0,
57,4104.62,4203.59,4120.51,3908.21,4347.69,4256.92,4636.92,4689.23,4377.95,3986.15,4351.28,4703.08,4385.13,4702.05,1691,1713,4.77,0,0,0,0,1,0,
58,4097.95,4196.41,4110.77,3900.51,4341.03,4255.38,4637.95,4684.62,4373.85,3975.38,4342.56,4696.41,4375.9,4693.33,1689,1712,4.771,0,0,0,0,1,0,
59,4095.38,4195.38,4104.62,3893.85,4341.03,4256.41,4637.95,4685.64,4374.87,3970.26,4340,4696.41,4373.33,4690.26,1690,1713,4.771,0,0,0,0,1,0,
60,4101.03,4203.59,4113.33,3900,4355.9,4263.08,4639.49,4696.41,4383.59,3985.13,4346.15,4702.56,4380.51,4700,1690,1711,4.771,0,0,0,0,1,0,
61,4102.05,4204.1,4118.46,3900,4364.1,4263.59,4640,4700,4388.21,3992.31,4348.72,4704.1,4384.1,4704.1,1690,1712,4.775,0,0,0,0,1,0,
62,4095.38,4189.74,4110.26,3892.82,4351.28,4255.9,4635.38,4694.36,4384.62,3984.1,4343.59,4699.49,4381.03,4695.38,1690,1711,4.779,0,0,0,0,1,0,
63,4090.77,4184.1,4105.13,3893.85,4337.95,4250.77,4632.82,4689.23,4380.51,3982.56,4335.38,4695.38,4377.95,4687.18,1690,1711,4.787,0,0,0,0,1,0,
64,4090.26,4189.74,4105.64,3895.38,4337.44,4249.74,4629.74,4684.62,4377.95,3985.64,4329.74,4691.79,4377.44,4687.18,1690,1711,4.795,0,0,0,0,1,0,
65,4094.87,4192.31,4108.21,3895.9,4337.95,4251.79,4624.62,4683.59,4375.9,3978.46,4331.28,4693.33,4377.44,4692.82,1690,1712,4.803,0,0,0,0,1,0,
66,4103.08,4201.03,4115.38,3902.05,4339.49,4253.85,4625.13,4688.21,4377.95,3981.03,4340,4700.51,4382.05,4698.46,1691,1710,4.811,0,0,0,0,1,0,
67,4108.21,4212.82,4124.1,3911.79,4348.72,4252.31,4631.79,4689.23,4380.51,3995.38,4344.62,4704.1,4389.74,4703.59,1692,1710,4.819,0,0,0,0,1,0,
68,4111.79,4212.82,4126.67,3914.87,4354.87,4253.85,4632.31,4682.56,4375.9,3988.72,4338.97,4703.08,4390.26,4705.13,1692,1709,4.826,0,0,0,0,1,0,
69,4114.36,4211.28,4124.62,3910.26,4351.28,4260,4628.72,4677.95,4370.26,3975.38,4334.87,4703.08,4388.21,4703.59,1692,1711,4.834,0,0,0,0,1,0,
70,4112.82,4211.79,4123.59,3907.18,4348.21,4257.95,4631.28,4680,4372.82,3982.05,4337.95,4704.62,4389.23,4704.62,1692,1711,4.842,0,0,0,0,1,0,
71,4109.74,4203.59,4122.56,3909.23,4348.72,4252.82,4635.9,4683.08,4378.46,3991.79,4337.95,4704.1,4386.15,4704.62,1692,1712,4.85,0,0,0,0,1,0,
72,4109.74,4200,4121.03,3906.15,4348.72,4254.36,4636.92,4685.64,4380.51,3987.69,4332.82,4702.56,4382.05,4702.05,1692,1711,4.858,0,0,0,0,1,0,
73,4105.64,4203.08,4113.85,3899.49,4341.54,4253.85,4633.33,4686.15,4377.44,3980.51,4327.69,4696.92,4378.46,4695.9,1692,1712,4.865,0,0,0,0,1,0,
74,4098.97,4196.92,4106.15,3896.92,4331.79,4247.18,4629.23,4688.72,4372.82,3979.49,4327.69,4694.87,4375.38,4691.79,1692,1711,4.873,0,0,0,0,1,0,
75,4102.05,4196.92,4111.28,3900.51,4339.49,4247.69,4632.31,4697.95,4378.97,3986.15,4331.28,4700,4380,4698.97,1691,1712,4.881,0,0,0,0,1,0,
76,4109.23,4203.08,4120,3908.21,4355.38,4257.95,4636.41,4711.28,4387.69,3994.36,4330.77,4704.1,4387.18,4705.13,1691,1712,4.889,0,0,0,0,1,0,
77,4108.21,4202.56,4118.46,3907.18,4353.33,4259.49,4631.79,4717.95,4384.1,3998.46,4327.18,4702.05,4385.64,4700,1690,1712,4.897,0,0,0,0,1,0,
78,4102.56,4201.03,4109.74,3900.51,4346.15,4254.36,4628.72,4718.46,4379.49,3998.46,4325.13,4700,4382.05,4695.38,1691,1713,4.905,0,0,0,0,1,0,
79,4102.05,4200.51,4108.21,3902.05,4348.21,4254.36,4630.77,4715.9,4380.51,3993.33,4323.59,4695.9,4380,4694.87,1690,1711,4.912,0,0,0,0,1,0,
80,4100.51,4199.49,4107.18,3904.1,4347.18,4256.92,4631.28,4708.72,4374.87,3986.67,4320,4689.23,4376.41,4689.74,1690,1712,4.92,0,0,0,0,1,0,
81,4096.41,4199.49,4103.08,3896.41,4342.05,4257.44,4629.23,4704.62,4368.72,3985.64,4315.38,4687.18,4375.38,4684.62,1690,1711,4.928,0,0,0,0,1,0,
82,4096.41,4201.03,4102.05,3893.85,4344.1,4256.41,4628.21,4707.69,4371.79,3980.51,4313.85,4687.18,4374.36,4685.64,1689,1710,4.936,0,0,0,0,1,0,
83,4100.51,4202.56,4106.15,3898.97,4351.28,4253.85,4630.26,4707.69,4372.31,3976.41,4314.36,4688.72,4371.28,4687.18,1690,1710,4.944,0,0,0,0,1,0,
84,4103.08,4201.03,4109.74,3898.46,4347.18,4253.85,4631.79,4704.62,4365.13,3981.03,4312.31,4691.79,4369.74,4688.72,1689,1712,4.952,0,0,0,0,1,0,
85,4099.49,4193.33,4108.72,3895.38,4341.54,4256.41,4628.72,4705.13,4360.51,3978.46,4307.69,4690.77,4364.1,4686.67,1691,1711,4.959,0,0,0,0,1,0,
86,4095.9,4193.33,4106.67,3894.36,4343.59,4251.28,4625.64,4707.18,4361.54,3967.18,4302.05,4686.67,4358.97,4682.56,1690,1712,4.967,0,0,0,0,1,0,
87,4097.44,4196.41,4106.15,3892.82,4343.08,4244.62,4627.18,4708.72,4364.1,3967.18,4301.03,4686.67,4359.49,4683.08,1691,1712,4.975,0,0,0,0,1,0,
88,4103.59,4190.77,4107.69,3896.41,4341.03,4250.77,4630.77,4713.85,4367.18,3975.9,4307.18,4689.74,4363.08,4687.69,1691,1712,4.983,0,0,0,0,1,0,
89,4104.1,4190.77,4107.18,3898.46,4342.56,4254.87,4632.82,4716.92,4370.26,3974.87,4309.74,4689.23,4361.03,4689.74,1692,1713,4.991,0,0,0,0,1,0,
90,4096.41,4194.36,4102.05,3891.79,4339.49,4252.31,4629.23,4714.87,4370.26,3972.31,4304.1,4686.67,4358.46,4684.62,1692,1712,4.998,0,0,0,0,1,0,
91,4092.31,4193.33,4097.44,3888.21,4336.41,4250.26,4624.1,4712.82,4369.74,3980.51,4300.51,4687.18,4357.95,4680,1691,1712,5.006,0,0,0,0,1,0,
92,4093.85,4192.31,4101.03,3894.36,4337.95,4246.15,4626.15,4713.33,4369.74,3983.59,4303.08,4687.18,4358.46,4681.54,1692,1711,5.014,0,0,0,0,1,0,
93,4095.9,4195.38,4105.13,3898.46,4335.9,4248.21,4632.31,4713.85,4371.28,3982.05,4308.21,4686.67,4364.1,4686.67,1690,1711,5.022,0,0,0,0,1,0,
94,4102.05,4196.41,4106.15,3896.92,4341.54,4255.9,4633.33,4716.92,4378.46,3991.28,4315.9,4691.28,4373.33,4690.26,1692,1711,5.03,0,0,0,0,1,0,
95,4105.64,4200,4106.67,3893.85,4346.15,4255.9,4630.77,4717.95,4376.41,3997.95,4313.85,4692.82,4372.31,4689.23,1690,1711,5.038,0,0,0,0,1,0,
96,4098.46,4202.05,4103.59,3889.74,4334.87,4248.21,4629.23,4710.77,4365.13,3983.08,4301.54,4685.64,4359.49,4684.1,1691,1710,5.045,0,0,0,0,1,0,
97,4095.9,4198.46,4100.51,3890.77,4331.79,4250.26,4628.72,4707.18,4366.15,3973.85,4300.51,4684.1,4356.41,4683.08,1689,1711,5.053,0,0,0,0,1,0,
98,4105.64,4201.54,4104.62,3895.9,4345.13,4256.41,4629.23,4712.82,4373.33,3986.67,4311.28,4690.26,4366.67,4687.18,1691,1711,5.061,0,0,0,0,1,0,
99,4109.74,4205.64,4112.31,3897.44,4349.74,4250.77,4629.74,4716.41,4372.82,3992.31,4313.33,4694.87,4371.79,4692.82,1689,1711,5.069,0,0,0,0,1,0,
100,4106.15,4198.97,4113.33,3896.92,4345.64,4246.67,4629.23,4712.82,4370.26,3984.62,4306.15,4694.36,4365.13,4693.33,1690,1711,5.077,0,0,0,0,1,0,
101,4104.1,4193.33,4108.72,3896.92,4344.62,4252.31,4631.28,4711.79,4373.85,3987.69,4304.1,4689.74,4362.05,4688.21,1690,1709,5.084,0,0,0,0,1,0,
102,4104.1,4197.95,4105.64,3895.38,4341.54,4251.28,4631.79,4713.33,4375.38,3989.74,4302.56,4686.67,4363.59,4681.54,1690,1711,5.092,0,0,0,0,1,0,
103,4101.54,4197.44,4103.59,3894.36,4334.87,4244.62,4624.62,4707.69,4370.77,3976.41,4296.41,4686.67,4358.46,4681.03,1691,1709,5.1,0,0,0,0,1,0,
104,4101.03,4190.77,4104.62,3895.9,4340,4248.21,4624.62,4704.1,4371.28,3974.87,4297.95,4686.67,4354.87,4686.15,1691,1710,5.108,0,0,0,0,1,0,
105,4104.62,4195.38,4107.18,3896.41,4348.21,4253.33,4631.28,4705.13,4371.79,3985.64,4306.15,4684.62,4363.59,4688.21,1691,1710,5.116,0,0,0,0,1,0,
106,4104.1,4204.62,4103.59,3893.85,4339.49,4249.23,4626.67,4702.05,4364.62,3982.05,4303.08,4681.03,4367.18,4684.62,1692,1710,5.124,0,0,0,0,1,0,
107,4101.03,4200,4099.49,3892.82,4329.23,4247.69,4620,4697.95,4361.54,3973.33,4292.31,4682.05,4356.92,4683.59,1693,1709,5.131,0,0,0,0,1,0,
108,4100,4188.21,4101.03,3888.72,4337.44,4247.69,4622.56,4696.92,4368.72,3973.85,4291.79,4684.62,4351.79,4684.62,1692,1709,5.139,0,0,0,0,1,0,
109,4097.44,4188.21,4099.49,3885.13,4342.56,4243.08,4618.97,4693.85,4366.67,3976.41,4297.44,4682.05,4355.9,4681.03,1692,1710,5.147,0,0,0,0,1,0,
110,4098.97,4196.92,4098.97,3891.79,4333.85,4238.97,4611.28,4690.26,4359.49,3975.9,4297.44,4681.03,4358.97,4683.08,1691,1710,5.155,0,0,0,0,1,0,
111,4108.72,4201.03,4106.15,3899.49,4330.77,4237.44,4615.38,4692.82,4364.1,3979.49,4300.51,4688.21,4362.05,4691.79,1690,1712,5.163,0,0,0,0,1,0,
112,4108.72,4202.05,4108.72,3894.87,4339.49,4242.05,4622.56,4697.95,4370.26,3985.13,4308.72,4691.79,4364.1,4693.33,1691,1711,5.17,0,0,0,0,1,0,
113,4106.15,4204.62,4107.18,3891.28,4341.03,4244.1,4621.54,4700,4369.74,3984.1,4307.18,4688.21,4361.03,4691.28,1689,1712,5.178,0,0,0,0,1,0,
114,4109.74,4203.08,4107.69,3895.9,4334.36,4242.05,4620,4696.41,4363.59,3978.97,4298.97,4686.15,4355.9,4692.82,1690,1711,5.186,0,0,0,0,1,0,
115,4108.21,4197.95,4106.67,3896.41,4330.77,4242.05,4623.08,4693.33,4361.54,3977.44,4299.49,4687.18,4356.92,4692.82,1689,1711,5.194,0,0,0,0,1,0,
116,4106.15,4193.85,4107.18,3895.9,4335.38,4241.54,4624.1,4695.9,4368.21,3977.95,4304.62,4688.72,4357.95,4696.92,1690,1711,5.202,0,0,0,0,1,0,
117,4109.23,4193.33,4108.72,3893.85,4332.31,4241.03,4617.95,4692.31,4369.23,3976.92,4302.56,4686.15,4356.92,4696.41,1690,1711,5.21,0,0,0,0,1,0,
118,4104.1,4194.87,4102.05,3883.08,4322.05,4239.49,4613.85,4684.62,4361.54,3976.41,4295.9,4681.03,4352.82,4687.18,1690,1711,5.217,0,0,0,0,1,0,
119,4096.41,4193.33,4096.41,3881.54,4326.67,4237.95,4616.92,4686.15,4363.08,3978.97,4296.92,4679.49,4350.26,4683.59,1690,1711,5.225,0,0,0,0,1,0,
120,4100,4194.87,4099.49,3893.33,4340,4237.95,4618.46,4689.23,4369.23,3981.54,4301.54,4681.03,4354.36,4687.18,1691,1712,5.233,0,0,0,0,1,0,
121,4103.59,4199.49,4098.97,3890.77,4334.87,4238.97,4618.97,4686.67,4365.13,3976.92,4304.1,4681.54,4357.44,4689.74,1691,1712,5.241,0,0,0,0,1,0,
122,4102.05,4196.92,4098.97,3884.1,4323.59,4242.56,4622.05,4686.15,4364.62,3974.87,4302.05,4681.54,4353.85,4689.74,1692,1712,5.249,0,0,0,0,1,0,
123,4097.44,4186.15,4101.54,3890.77,4326.67,4243.59,4622.56,4685.13,4367.18,3982.56,4297.44,4680.51,4347.18,4686.67,1692,1712,5.256,0,0,0,0,1,0,
124,4094.36,4181.54,4100.51,3890.26,4332.31,4237.95,4621.54,4685.13,4365.13,3985.64,4295.9,4680.51,4345.64,4686.15,1693,1711,5.264,0,0,0,0,1,0,
125,4100,4190.77,4101.03,3887.18,4334.36,4234.36,4622.05,4688.21,4368.21,3981.54,4296.92,4684.1,4348.72,4691.79,1692,1711,5.272,0,0,0,0,1,0,
126,4104.1,4197.44,4105.13,3889.74,4333.85,4237.95,4622.56,4688.21,4372.31,3982.05,4297.95,4687.69,4351.28,4692.82,1693,1712,5.28,0,0,0,0,1,0,
127,4102.05,4193.33,4105.64,3890.77,4326.15,4238.97,4622.05,4685.13,4369.23,3985.13,4297.44,4687.69,4350.77,4690.26,1691,1712,5.288,0,0,0,0,1,0,
128,4102.05,4195.38,4103.59,3892.31,4328.21,4237.44,4621.03,4687.18,4367.18,3982.05,4294.36,4685.13,4346.67,4692.82,1691,1711,5.296,0,0,0,0,1,0,
0,4103.59,4204.62,4104.62,3892.82,4341.03,4236.41,4618.46,4687.69,4368.21,3981.54,4290.26,4686.15,4345.64,4690.26,1690,1711,5.303,0,0,0,0,1,0,
1,4100,4202.05,4104.1,3889.74,4342.56,4237.95,4618.97,4681.54,4363.08,3984.62,4290.26,4688.21,4344.1,4686.67,1690,1712,5.311,0,0,0,0,1,0,
2,4097.44,4196.41,4104.1,3887.69,4332.82,4241.03,4623.08,4677.95,4359.49,3984.1,4291.79,4684.1,4337.95,4687.69,1689,1709,5.319,0,0,0,0,1,0,
3,4096.92,4200,4103.08,3891.28,4330.26,4237.95,4620.51,4678.46,4363.59,3978.46,4290.26,4678.97,4335.9,4686.15,1688,1712,5.327,0,0,0,0,1,0,
4,4093.33,4196.41,4094.87,3890.26,4333.33,4234.36,4614.87,4675.38,4361.54,3975.38,4289.74,4679.49,4341.03,4684.1,1688,1711,5.335,0,0,0,0,1,0,
5,4093.33,4191.28,4093.33,3888.21,4335.38,4238.46,4617.44,4669.74,4356.92,3975.9,4289.74,4682.56,4339.49,4688.21,1688,1711,5.343,0,0,0,0,1,0,
6,4093.33,4194.36,4102.56,3888.21,4334.36,4234.87,4617.95,4670.26,4356.92,3972.82,4287.69,4680.51,4332.31,4689.74,1689,1711,5.35,0,0,0,0,1,0,
7,4091.28,4190.26,4101.54,3886.67,4328.21,4229.74,4615.9,4672.31,4354.36,3964.62,4283.59,4676.92,4330.77,4687.18,1689,1710,5.358,0,0,0,0,1,0,
8,4090.26,4187.18,4093.85,3884.62,4331.79,4235.38,4617.44,4670.26,4352.82,3966.15,4283.08,4678.97,4332.82,4689.23,1689,1711,5.366,0,0,0,0,1,0,
9,4090.26,4193.33,4097.95,3881.54,4331.28,4235.9,4617.95,4669.23,4357.95,3975.9,4284.1,4680.51,4331.79,4688.21,1689,1711,5.374,0,0,0,0,1,0,
10,4087.18,4192.82,4100,3883.59,4316.92,4230.26,4616.41,4669.23,4357.44,3971.79,4281.54,4674.87,4324.62,4681.54,1690,1711,5.382,0,0,0,0,1,0,
11,4083.08,4184.1,4090.77,3881.03,4316.92,4234.36,4616.92,4667.69,4350.26,3962.05,4280,4671.28,4321.03,4679.49,1690,1710,5.389,0,0,0,0,1,0,
12,4083.08,4183.59,4089.23,3877.95,4333.33,4242.05,4620,4667.69,4352.31,3969.23,4284.1,4674.87,4328.72,4683.08,1691,1711,5.397,0,0,0,0,1,0,
13,4083.59,4190.77,4093.33,3883.08,4334.87,4236.92,4619.49,4666.15,4356.92,3970.77,4283.08,4675.38,4332.31,4683.08,1692,1710,5.405,0,0,0,0,1,0,
14,4084.1,4195.38,4091.79,3882.05,4323.08,4228.21,4615.9,4664.1,4356.41,3961.03,4278.46,4674.36,4327.69,4683.08,1691,1711,5.413,0,0,0,0,1,0,
15,4083.08,4194.36,4094.36,3881.03,4327.18,4232.31,4615.9,4668.72,4360,3970.26,4284.1,4679.49,4332.82,4689.74,1692,1710,5.421,0,0,0,0,1,0,
16,4081.54,4187.18,4094.87,3882.05,4329.23,4235.38,4620,4668.21,4360,3981.03,4286.15,4681.03,4333.33,4690.26,1691,1710,5.429,0,0,0,0,1,0,
17,4082.56,4183.08,4089.23,3881.54,4322.56,4231.28,4618.46,4661.03,4352.31,3972.82,4277.44,4675.9,4322.56,4684.62,1692,1712,5.436,0,0,0,0,1,0,
18,4085.64,4187.18,4093.33,3883.08,4324.1,4230.26,4617.44,4663.08,4354.36,3967.69,4277.44,4677.44,4323.08,4686.15,1691,1710,5.444,0,0,0,0,1,0,
19,4085.13,4189.74,4102.05,3883.08,4328.21,4231.79,4621.03,4668.21,4361.54,3970.26,4283.08,4682.56,4329.74,4689.74,1690,1711,5.452,0,0,0,0,1,0,
20,4084.1,4187.18,4097.44,3879.49,4324.1,4233.33,4622.05,4667.69,4358.97,3972.31,4282.05,4682.56,4327.69,4687.69,1690,1711,5.46,0,0,0,0,1,0,
21,4083.59,4190.77,4092.31,3878.46,4315.9,4231.79,4621.03,4665.64,4353.33,3973.85,4276.92,4676.92,4323.59,4683.59,1690,1711,5.468,0,0,0,0,1,0,
22,4082.05,4194.87,4097.95,3880,4318.97,4229.74,4619.49,4665.13,4358.97,3972.82,4275.9,4675.38,4324.62,4683.59,1690,1710,5.475,0,0,0,0,1,0,
23,4086.15,4194.36,4102.56,3882.05,4330.26,4231.79,4619.49,4667.69,4365.64,3975.9,4282.05,4683.59,4330.77,4689.23,1690,1711,5.483,0,0,0,0,1,0,
24,4090.26,4193.33,4102.56,3888.21,4331.28,4232.82,4622.05,4667.69,4361.03,3978.46,4285.13,4688.21,4333.85,4693.33,1691,1710,5.491,0,0,0,0,1,0,
25,4086.15,4189.74,4098.97,3887.18,4321.54,4229.74,4620,4659.49,4352.31,3971.79,4281.54,4681.03,4326.67,4688.21,1691,1712,5.499,0,0,0,0,1,0,
26,4082.05,4187.69,4094.87,3877.44,4323.08,4230.26,4616.41,4656.92,4354.36,3969.23,4280.51,4675.38,4322.05,4684.62,1692,1711,5.507,0,0,0,0,1,0,
27,4083.59,4192.82,4097.44,3878.97,4330.77,4233.33,4621.54,4666.15,4360.51,3978.46,4283.08,4680.51,4326.15,4685.13,1690,1712,5.515,0,0,0,0,1,0,
28,4086.15,4193.85,4100.51,3884.62,4325.13,4232.82,4623.59,4664.1,4354.87,3976.92,4281.54,4682.05,4324.62,4685.13,1691,1712,5.522,0,0,0,0,1,0,
29,4081.54,4185.64,4094.87,3879.49,4318.46,4232.31,4615.9,4651.28,4345.13,3964.1,4281.03,4676.41,4315.38,4684.1,1691,1711,5.53,0,0,0,0,1,0,
30,4073.33,4182.05,4089.23,3875.38,4321.54,4229.23,4613.33,4649.23,4345.64,3958.46,4282.05,4672.82,4313.85,4681.54,1691,1712,5.538,0,0,0,0,1,0,
31,4075.38,4189.74,4092.31,3879.49,4324.1,4225.64,4615.9,4656.92,4350.77,3965.13,4282.56,4674.87,4317.95,4681.03,1692,1711,5.546,0,0,0,0,1,0,
32,4079.49,4196.41,4095.38,3880.51,4318.97,4228.72,4615.9,4655.9,4349.74,3969.23,4281.03,4676.92,4314.36,4681.54,1690,1711,5.554,0,0,0,0,1,0,
33,4076.41,4191.79,4093.33,3877.44,4320,4232.31,4616.92,4650.77,4347.69,3958.97,4277.95,4673.33,4310.26,4682.05,1691,1711,5.561,0,0,0,0,1,0,
34,4077.95,4189.74,4095.9,3877.95,4331.28,4231.79,4617.44,4652.31,4350.26,3955.38,4284.62,4673.33,4313.85,4685.13,1691,1712,5.569,0,0,0,0,1,0,
35,4084.62,4193.85,4100.51,3882.56,4334.36,4230.26,4617.44,4653.85,4350.77,3967.18,4290.77,4677.95,4317.95,4689.23,1692,1711,5.577,0,0,0,0,1,0,
36,4081.54,4192.31,4098.46,3882.56,4326.67,4229.23,4616.92,4650.26,4350.26,3972.31,4286.67,4675.9,4316.41,4684.62,1690,1712,5.585,0,0,0,0,1,0,
37,4075.38,4189.74,4090.77,3877.95,4319.49,4229.23,4613.85,4646.15,4348.72,3963.08,4284.62,4669.23,4311.28,4674.87,1691,1712,5.593,0,0,0,0,1,0,
38,4076.41,4190.26,4091.79,3878.46,4325.13,4231.79,4614.36,4648.21,4347.69,3961.03,4288.21,4669.23,4310.77,4676.41,1691,1711,5.601,0,0,0,0,1,0,
39,4077.95,4191.79,4094.36,3882.05,4332.31,4234.87,4618.46,4650.26,4347.18,3964.1,4290.26,4670.77,4314.36,4680.51,1691,1712,5.608,0,0,0,0,1,0,
40,4074.87,4192.31,4089.74,3882.56,4324.62,4226.67,4615.38,4644.62,4346.67,3957.44,4288.72,4667.69,4312.31,4677.44,1691,1711,5.616,0,0,0,0,1,0,
41,4075.38,4191.79,4091.28,3880.51,4318.46,4221.54,4610.77,4643.59,4347.69,3960,4294.36,4668.72,4310.77,4675.9,1691,1713,5.624,0,0,0,0,1,0,
42,4082.05,4192.31,4099.49,3878.46,4324.62,4226.67,4615.38,4647.18,4348.72,3969.23,4301.03,4674.87,4318.46,4682.05,1691,1711,5.632,0,0,0,0,1,0,
43,4082.05,4193.33,4098.97,3878.46,4318.46,4224.1,4615.9,4643.59,4345.64,3962.56,4296.92,4673.85,4321.03,4688.21,1691,1711,5.64,0,0,0,0,1,0,
44,4077.95,4189.23,4094.87,3880.51,4312.31,4220.51,4612.31,4638.97,4343.59,3955.38,4291.79,4667.69,4312.31,4686.15,1692,1712,5.647,0,0,0,0,1,0,
45,4083.59,4193.33,4098.97,3879.49,4325.64,4226.67,4614.87,4647.18,4347.69,3966.15,4294.87,4669.23,4314.36,4684.1,1691,1711,5.655,0,0,0,0,1,0,
46,4088.72,4203.59,4104.62,3876.92,4326.67,4226.15,4617.95,4653.33,4352.31,3970.77,4300,4675.9,4324.1,4686.67,1692,1711,5.663,0,0,0,0,1,0,
47,4085.64,4200.51,4102.56,3884.1,4315.38,4223.08,4616.41,4650.26,4358.46,3965.13,4302.05,4678.46,4325.64,4690.77,1691,1711,5.671,0,0,0,0,1,0,
48,4087.18,4198.97,4100.51,3891.79,4321.54,4226.67,4612.82,4648.21,4358.97,3973.33,4303.08,4677.44,4327.18,4690.77,1691,1710,5.679,0,0,0,0,1,0,
49,4089.23,4205.64,4102.56,3885.64,4331.28,4228.21,4613.33,4649.23,4349.74,3980,4298.97,4674.87,4327.69,4685.64,1691,1711,5.687,0,0,0,0,1,0,
50,4082.56,4198.46,4102.05,3877.44,4323.08,4225.64,4614.87,4647.18,4347.18,3970.77,4293.85,4673.85,4322.05,4682.56,1691,1711,5.694,0,0,0,0,1,0,
51,4077.95,4189.74,4096.41,3879.49,4315.38,4222.56,4607.69,4641.54,4351.28,3964.62,4290.26,4671.79,4315.38,4683.08,1690,1712,5.702,0,0,0,0,1,0,
52,4078.97,4194.36,4093.85,3884.1,4320.51,4221.03,4604.62,4638.46,4350.26,3967.18,4289.23,4668.72,4313.33,4682.05,1690,1711,5.71,0,0,0,0,1,0,
53,4075.9,4193.85,4093.85,3877.95,4318.46,4221.54,4608.72,4640.51,4345.64,3962.56,4287.18,4665.64,4307.69,4677.44,1689,1712,5.718,0,0,0,0,1,0,
54,4068.72,4184.1,4090.26,3868.72,4307.69,4221.03,4607.69,4635.38,4341.54,3955.38,4281.03,4663.08,4298.97,4673.33,1690,1711,5.726,0,0,0,0,1,0,
55,4069.74,4185.13,4092.31,3871.79,4316.41,4221.54,4609.23,4628.72,4342.56,3956.41,4284.62,4665.64,4302.56,4677.95,1689,1712,5.734,0,0,0,0,1,0,
56,4076.41,4192.31,4098.97,3880,4329.23,4225.64,4618.46,4630.77,4345.13,3955.9,4292.31,4671.79,4308.21,4683.59,1690,1711,5.741,0,0,0,0,1,0,
57,4073.85,4186.15,4094.36,3877.95,4315.9,4225.64,4618.97,4632.82,4344.62,3953.85,4284.62,4670.26,4298.97,4681.03,1690,1711,5.749,0,0,0,0,1,0,
58,4067.69,4177.44,4089.74,3873.33,4305.64,4223.59,4611.28,4628.21,4344.62,3950.77,4277.44,4667.69,4293.85,4676.92,1691,1712,5.757,0,0,0,0,1,0,
59,4076.92,4189.74,4097.95,3880,4317.44,4223.08,4612.31,4626.67,4348.72,3948.72,4289.23,4674.87,4308.21,4683.08,1691,1709,5.765,0,0,0,0,1,0,
60,4086.67,4198.46,4103.08,3883.08,4316.92,4216.92,4611.28,4624.62,4346.67,3953.33,4295.9,4677.44,4316.41,4687.69,1691,1710,5.773,0,0,0,0,1,0,
61,4081.54,4188.21,4101.03,3877.44,4307.69,4213.85,4603.59,4620,4342.56,3962.05,4292.31,4673.33,4310.77,4684.62,1692,1709,5.78,0,0,0,0,1,0,
62,4080,4186.15,4103.59,3876.92,4315.9,4219.49,4604.62,4623.59,4347.69,3970.77,4293.85,4677.95,4312.31,4690.26,1692,1710,5.788,0,0,0,0,1,0,
63,4088.21,4196.92,4108.21,3880.51,4323.59,4223.08,4613.33,4631.28,4349.23,3972.82,4297.95,4684.62,4316.41,4697.44,1693,1710,5.796,0,0,0,0,1,0,
64,4090.77,4197.95,4108.21,3881.54,4319.49,4218.97,4615.9,4632.82,4345.13,3963.08,4296.41,4682.56,4315.38,4693.85,1691,1710,5.804,0,0,0,0,1,0,
65,4086.67,4193.33,4106.67,3878.46,4311.79,4213.85,4613.85,4633.85,4345.13,3955.38,4292.82,4677.95,4317.44,4689.74,1693,1709,5.812,0,0,0,0,1,0,
66,4083.59,4197.44,4104.1,3876.41,4310.26,4217.95,4615.38,4637.44,4346.67,3963.59,4293.85,4677.95,4318.97,4687.69,1692,1709,5.82,0,0,0,0,1,0,
67,4087.18,4200.51,4106.67,3884.1,4321.54,4221.03,4617.44,4637.95,4348.21,3975.9,4297.44,4681.03,4321.54,4689.23,1693,1709,5.827,0,0,0,0,1,0,
68,4095.38,4201.54,4114.36,3891.79,4327.69,4215.9,4613.33,4633.85,4352.31,3976.41,4303.08,4686.15,4327.18,4697.44,1691,1710,5.835,0,0,0,0,1,0,
69,4096.41,4204.1,4114.36,3885.13,4320.51,4213.85,4607.69,4632.31,4348.72,3971.28,4305.64,4686.67,4325.13,4700,1692,1712,5.843,0,0,0,0,1,0,
70,4087.18,4199.49,4104.62,3876.41,4316.41,4221.03,4606.67,4630.26,4341.54,3966.67,4297.95,4679.49,4316.41,4690.26,1692,1711,5.851,0,0,0,0,1,0,
71,4086.15,4197.44,4102.05,3877.95,4321.54,4223.08,4612.82,4631.28,4347.69,3968.21,4290.77,4675.9,4315.38,4687.18,1690,1712,5.859,0,0,0,0,1,0,
72,4094.87,4205.13,4109.74,3883.59,4323.59,4218.46,4617.44,4633.85,4352.82,3973.85,4297.44,4681.03,4327.69,4695.38,1692,1711,5.866,0,0,0,0,1,0,
73,4091.79,4202.05,4108.72,3882.56,4317.95,4213.85,4612.31,4631.28,4345.64,3972.82,4307.18,4682.05,4331.28,4695.9,1690,1712,5.874,0,0,0,0,1,0,
74,4079.49,4186.67,4100,3872.82,4305.64,4207.69,4603.59,4627.69,4343.08,3967.69,4300,4671.79,4316.92,4685.64,1691,1712,5.882,0,0,0,0,1,0,
75,4075.9,4190.77,4099.49,3872.31,4303.59,4206.15,4602.05,4629.23,4347.69,3967.69,4290.26,4667.18,4310.26,4681.03,1690,1712,5.89,0,0,0,0,1,0,
76,4080,4199.49,4101.03,3879.49,4315.9,4213.85,4605.64,4633.33,4350.26,3972.82,4295.38,4672.31,4320,4684.1,1690,1713,5.898,0,0,0,0,1,0,
77,4078.46,4191.79,4094.36,3875.38,4315.38,4217.95,4608.21,4628.72,4347.69,3970.26,4297.95,4670.26,4320,4682.05,1689,1713,5.906,0,0,0,0,1,0,
78,4072.31,4187.18,4090.26,3870.77,4308.21,4215.38,4606.15,4621.54,4346.15,3956.41,4290.77,4664.62,4311.28,4676.41,1690,1712,5.913,0,0,0,0,1,0,
79,4074.36,4190.26,4095.38,3878.97,4321.03,4216.92,4608.21,4620.51,4346.15,3957.95,4291.79,4666.67,4313.33,4678.97,1690,1711,5.921,0,0,0,0,1,0,
80,4080,4191.79,4101.03,3881.03,4330.77,4217.44,4609.23,4619.49,4343.08,3972.82,4297.95,4669.74,4314.87,4683.08,1690,1712,5.929,0,0,0,0,1,0,
81,4079.49,4190.26,4098.97,3877.95,4321.03,4213.85,4602.05,4614.87,4336.41,3970.26,4296.41,4669.74,4311.79,4682.05,1691,1710,5.937,0,0,0,0,1,0,
82,4079.49,4191.79,4096.92,3880.51,4321.54,4214.36,4600,4614.36,4337.95,3961.54,4297.95,4671.79,4314.87,4682.56,1690,1711,5.945,0,0,0,0,1,0,
83,4084.1,4196.41,4097.95,3878.46,4330.26,4215.38,4603.08,4614.87,4344.1,3968.21,4305.64,4672.82,4321.03,4685.13,1690,1711,5.952,0,0,0,0,1,0,
84,4084.1,4197.44,4097.44,3876.41,4326.67,4215.38,4604.1,4615.38,4343.59,3970.26,4305.13,4670.26,4322.05,4684.1,1689,1713,5.96,0,0,0,0,1,0,
85,4079.49,4196.41,4096.41,3878.97,4318.97,4213.85,4604.1,4627.18,4341.54,3963.08,4304.62,4667.18,4317.44,4682.05,1691,1713,5.968,0,0,0,0,1,0,
86,4078.97,4194.87,4095.38,3878.97,4316.92,4212.82,4606.15,4641.03,4344.1,3965.64,4308.21,4663.59,4312.31,4680,1690,1713,5.976,0,0,0,0,1,0,
87,4078.97,4191.28,4093.85,3876.92,4318.97,4214.87,4603.08,4646.67,4344.62,3969.23,4310.26,4663.08,4311.79,4676.41,1692,1713,5.984,0,0,0,0,1,0,
88,4077.44,4187.69,4092.31,3877.95,4325.64,4216.41,4598.97,4649.74,4344.62,3967.69,4314.87,4664.62,4318.46,4674.36,1691,1712,5.992,0,0,0,0,1,0,
89,4074.87,4187.69,4092.82,3879.49,4327.69,4211.28,4602.05,4652.31,4346.15,3967.69,4317.95,4665.13,4323.08,4676.92,1691,1712,5.999,0,0,0,0,1,0,
90,4073.33,4188.21,4092.82,3878.46,4320.51,4208.72,4602.56,4647.69,4345.13,3965.64,4310.77,4662.56,4315.38,4674.87,1691,1711,6.007,0,0,0,0,1,0,
91,4072.82,4189.23,4089.23,3877.44,4317.95,4208.21,4598.97,4644.62,4340.51,3958.46,4303.59,4658.46,4305.64,4670.26,1692,1713,6.015,0,0,0,0,1,0,
92,4071.79,4191.79,4086.15,3875.38,4323.59,4205.13,4598.97,4645.64,4336.41,3952.82,4306.67,4657.44,4305.13,4669.74,1692,1710,6.023,0,0,0,0,1,0,
93,4068.72,4192.82,4086.15,3872.31,4327.18,4209.23,4603.08,4643.08,4335.38,3952.31,4307.69,4656.41,4307.18,4667.18,1690,1712,6.031,0,0,0,0,1,0,
94,4067.18,4196.92,4087.69,3873.33,4327.69,4213.85,4604.62,4644.62,4341.03,3958.97,4306.67,4654.87,4305.64,4665.64,1692,1710,6.038,0,0,0,0,1,0,
95,4068.21,4193.85,4086.15,3878.46,4323.08,4211.79,4603.59,4646.15,4347.18,3963.08,4313.33,4656.92,4306.15,4669.74,1689,1710,6.046,0,0,0,0,1,0,
96,4065.64,4181.54,4081.03,3872.82,4313.33,4208.72,4600.51,4638.97,4338.97,3953.33,4316.41,4655.9,4307.18,4668.72,1690,1710,6.054,0,0,0,0,1,0,
97,4056.41,4180.51,4075.9,3858.97,4305.64,4205.13,4595.38,4630.77,4327.69,3945.13,4306.15,4649.23,4301.54,4661.54,1690,1710,6.062,0,0,0,0,1,0,
98,4056.41,4185.64,4078.46,3866.67,4308.21,4197.95,4594.87,4634.87,4331.79,3948.21,4303.59,4650.77,4294.87,4663.08,1689,1711,6.07,0,0,0,0,1,0,
99,4067.69,4185.13,4088.72,3880,4317.95,4197.95,4600.51,4642.56,4338.97,3957.44,4314.87,4657.44,4300,4671.28,1690,1710,6.078,0,0,0,0,1,0,
100,4072.31,4189.23,4091.79,3873.85,4323.08,4202.05,4602.56,4641.54,4340,3962.05,4317.95,4657.95,4308.21,4670.77,1690,1710,6.085,0,0,0,0,1,0,
101,4067.69,4194.87,4087.18,3868.72,4320.51,4198.97,4599.49,4638.46,4338.97,3958.46,4315.38,4657.95,4309.74,4667.18,1690,1710,6.093,0,0,0,0,1,0,
102,4065.64,4191.79,4087.18,3871.28,4316.41,4197.44,4598.46,4636.41,4335.38,3954.87,4320,4660.51,4307.18,4669.74,1690,1710,6.101,0,0,0,0,1,0,
103,4064.62,4187.69,4088.21,3871.28,4312.82,4200.51,4600.51,4631.79,4330.26,3947.69,4314.87,4656.41,4296.92,4669.23,1690,1710,6.109,0,0,0,0,1,0,
104,4062.05,4183.59,4082.56,3871.28,4309.74,4196.92,4596.92,4625.13,4327.69,3937.44,4304.1,4652.31,4288.72,4663.59,1691,1710,6.117,0,0,0,0,1,0,
105,4062.05,4178.46,4081.03,3873.33,4309.23,4192.31,4595.38,4625.13,4329.23,3937.44,4309.23,4655.38,4296.41,4664.62,1690,1709,6.124,0,0,0,0,1,0,
106,4062.56,4180.51,4084.62,3868.21,4308.21,4199.49,4601.03,4628.21,4329.74,3949.74,4314.36,4656.41,4306.15,4668.72,1691,1709,6.132,0,0,0,0,1,0,
107,4065.64,4189.23,4086.15,3865.13,4312.82,4207.69,4603.08,4632.82,4333.33,3956.41,4311.28,4655.9,4307.69,4669.74,1690,1710,6.14,0,0,0,0,1,0,
108,4068.72,4196.41,4088.21,3874.87,4325.64,4203.59,4608.21,4639.49,4343.59,3958.46,4316.92,4661.03,4311.79,4674.87,1691,1711,6.148,0,0,0,0,1,0,
109,4065.64,4193.33,4087.69,3877.44,4329.23,4201.03,4614.87,4640.51,4350.77,3965.13,4322.05,4665.13,4314.36,4678.46,1690,1711,6.156,0,0,0,0,1,0,
110,4061.54,4186.15,4085.13,3868.72,4323.08,4204.1,4611.28,4634.87,4343.59,3964.62,4316.92,4658.46,4308.21,4671.79,1691,1712,6.164,0,0,0,0,1,0,
111,4058.97,4183.59,4083.08,3866.15,4317.95,4205.13,4604.1,4628.21,4331.28,3950.77,4310.77,4649.74,4302.05,4664.1,1690,1710,6.171,0,0,0,0,1,0,
112,4055.38,4183.59,4078.46,3869.23,4313.33,4199.49,4604.62,4622.05,4329.23,3938.97,4306.67,4647.18,4297.95,4660.51,1689,1712,6.179,0,0,0,0,1,0,
113,4055.38,4181.03,4076.92,3870.77,4311.28,4194.36,4603.08,4618.46,4328.72,3944.1,4307.18,4650.26,4297.44,4660.51,1691,1711,6.187,0,0,0,0,1,0,
114,4059.49,4180,4082.05,3872.31,4313.33,4195.9,4597.44,4618.97,4328.72,3951.79,4311.79,4654.36,4302.05,4666.15,1688,1711,6.195,0,0,0,0,1,0,
115,4065.64,4187.18,4088.72,3873.33,4318.46,4201.03,4600,4623.59,4335.38,3951.79,4316.41,4659.49,4305.64,4671.79,1690,1712,6.203,0,0,0,0,1,0,
116,4068.72,4192.82,4088.21,3872.82,4316.41,4202.56,4605.13,4626.15,4339.49,3953.85,4319.49,4662.05,4306.67,4670.26,1690,1711,6.211,0,0,0,0,1,0,
117,4060.51,4187.69,4084.62,3874.87,4306.67,4194.87,4603.59,4622.05,4332.82,3952.31,4315.9,4655.38,4304.62,4664.62,1690,1712,6.218,0,0,0,0,1,0,
118,4052.82,4178.46,4080,3869.74,4305.64,4190.77,4599.49,4617.44,4328.72,3943.08,4306.67,4649.74,4298.46,4660.51,1690,1712,6.226,0,0,0,0,1,0,
119,4056.92,4180.51,4083.59,3866.15,4313.33,4194.36,4600.51,4622.05,4331.79,3942.56,4308.72,4653.33,4294.36,4664.62,1691,1713,6.234,0,0,0,0,1,0,
120,4062.56,4188.21,4090.26,3878.46,4315.38,4193.85,4605.13,4625.64,4332.82,3952.31,4316.41,4658.97,4300,4670.26,1692,1711,6.242,0,0,0,0,1,0,
121,4058.97,4186.15,4086.15,3882.05,4312.82,4194.87,4605.13,4621.03,4332.31,3948.72,4312.31,4656.92,4303.08,4666.67,1690,1712,6.25,0,0,0,0,1,0,
122,4054.87,4181.03,4078.97,3867.18,4313.85,4195.38,4603.08,4620.51,4331.28,3935.38,4308.72,4654.87,4295.9,4661.03,1692,1711,6.257,0,0,0,0,1,0,
123,4052.82,4179.49,4078.46,3858.97,4313.85,4192.31,4601.54,4623.59,4330.77,3942.56,4313.33,4656.92,4292.82,4663.59,1691,1712,6.265,0,0,0,0,1,0,
124,4051.79,4182.56,4080.51,3868.21,4308.72,4190.77,4602.56,4621.54,4333.33,3957.44,4314.36,4656.41,4296.41,4664.1,1693,1711,6.273,0,0,0,0,1,0,
125,4052.31,4183.08,4076.92,3872.82,4298.97,4190.77,4601.54,4617.44,4334.87,3952.82,4309.74,4652.82,4296.92,4661.54,1691,1711,6.281,0,0,0,0,1,0,
126,4052.82,4186.15,4076.41,3866.15,4302.56,4191.28,4603.59,4620,4335.38,3951.79,4309.23,4655.38,4298.97,4664.1,1691,1711,6.289,0,0,0,0,1,0,
127,4057.44,4195.9,4084.1,3869.23,4324.62,4193.33,4609.23,4627.69,4338.97,3966.67,4315.9,4664.62,4311.28,4670.26,1691,1710,6.297,0,0,0,0,1,0,
128,4062.05,4195.9,4088.72,3880.51,4332.82,4197.95,4610.26,4627.18,4338.97,3970.26,4321.03,4666.67,4316.41,4671.79,1690,1711,6.304,0,0,0,0,1,0,
0,4060.51,4191.28,4087.18,3882.05,4323.08,4195.38,4606.67,4620.51,4334.36,3963.08,4321.54,4663.59,4310.26,4670.77,1690,1711,6.312,0,0,0,0,1,0,
1,4059.49,4196.41,4085.64,3873.85,4322.05,4191.28,4604.1,4620.51,4336.41,3966.67,4319.49,4664.1,4310.77,4671.79,1689,1711,6.32,0,0,0,0,1,0,
2,4058.97,4196.41,4083.59,3865.64,4326.67,4193.85,4604.62,4622.05,4338.97,3968.72,4319.49,4664.62,4313.85,4671.28,1689,1710,6.328,0,0,0,0,1,0,
3,4056.41,4183.59,4081.54,3869.23,4321.54,4196.41,4605.64,4616.92,4336.41,3959.49,4321.54,4662.56,4310.26,4669.23,1689,1711,6.336,0,0,0,0,1,0,
4,4060,4183.59,4086.67,3878.46,4318.97,4195.38,4610.26,4617.44,4338.97,3958.46,4321.54,4663.59,4309.23,4672.82,1689,1709,6.343,0,0,0,0,1,0,
5,4064.62,4194.87,4090.26,3877.95,4327.69,4195.9,4612.82,4625.13,4344.1,3968.72,4320.51,4666.67,4315.38,4675.9,1688,1710,6.351,0,0,0,0,1,0,
6,4058.46,4192.31,4086.15,3874.36,4327.18,4198.97,4608.21,4619.49,4338.46,3969.74,4316.92,4663.08,4314.87,4670.26,1690,1710,6.359,0,0,0,0,1,0,
7,4051.79,4186.15,4082.56,3873.33,4311.79,4190.77,4603.59,4607.18,4328.21,3958.46,4311.28,4655.38,4308.72,4663.08,1689,1709,6.367,0,0,0,0,1,0,
8,4053.85,4182.05,4081.03,3864.62,4309.23,4183.08,4604.1,4608.72,4327.18,3951.79,4307.18,4653.33,4305.13,4662.56,1691,1710,6.375,0,0,0,0,1,0,
9,4053.33,4176.41,4077.44,3858.46,4321.03,4188.72,4605.13,4612.82,4333.33,3954.36,4306.15,4655.38,4300.51,4664.62,1691,1710,6.383,0,0,0,0,1,0,
10,4050.26,4173.33,4074.87,3861.54,4320.51,4187.18,4601.54,4608.72,4333.85,3952.31,4302.05,4656.41,4296.92,4663.08,1692,1710,6.39,0,0,0,0,1,0,
11,4053.33,4182.56,4082.56,3861.54,4314.87,4183.59,4603.59,4609.74,4331.79,3951.79,4302.56,4660,4305.13,4666.15,1692,1710,6.398,0,0,0,0,1,0,
12,4063.59,4191.28,4091.79,3868.72,4317.44,4187.69,4609.23,4617.44,4333.85,3957.44,4314.87,4666.15,4315.9,4673.85,1692,1711,6.406,0,0,0,0,1,0,
13,4068.72,4186.67,4090.26,3880.51,4316.41,4187.18,4604.1,4614.87,4331.28,3958.97,4314.87,4664.62,4311.79,4673.85,1693,1711,6.414,0,0,0,0,1,0,
14,4068.21,4183.08,4087.18,3874.87,4315.38,4183.08,4596.92,4605.64,4327.69,3957.44,4308.72,4663.08,4306.15,4671.28,1692,1711,6.422,0,0,0,0,1,0,
15,4072.82,4192.82,4091.79,3869.23,4324.62,4184.1,4602.56,4608.72,4336.41,3961.03,4319.49,4671.28,4315.9,4681.54,1693,1710,6.429,0,0,0,0,1,0,
16,4076.41,4202.05,4093.33,3876.92,4326.15,4186.15,4608.21,4614.36,4341.54,3964.1,4322.56,4673.85,4319.49,4687.69,1691,1711,6.437,0,0,0,0,1,0,
17,4068.21,4192.31,4086.67,3871.79,4313.85,4185.64,4603.59,4606.67,4329.74,3952.82,4304.62,4664.62,4309.23,4675.9,1693,1711,6.445,0,0,0,0,1,0,
18,4065.64,4181.54,4085.13,3863.59,4311.79,4186.67,4604.62,4601.54,4326.15,3945.13,4300.51,4663.59,4309.23,4673.85,1691,1711,6.453,0,0,0,0,1,0,
19,4072.31,4187.69,4090.77,3876.92,4325.13,4189.23,4611.79,4609.23,4335.38,3958.97,4314.36,4671.28,4316.92,4684.62,1692,1712,6.461,0,0,0,0,1,0,
20,4070.77,4190.26,4091.28,3884.1,4329.74,4188.72,4610.26,4610.77,4335.38,3966.67,4313.85,4669.23,4311.79,4682.05,1692,1710,6.469,0,0,0,0,1,0,
21,4061.54,4184.1,4083.08,3868.21,4319.49,4186.15,4603.08,4603.59,4328.72,3955.9,4302.56,4662.05,4306.67,4670.77,1690,1711,6.476,0,0,0,0,1,0,
22,4058.97,4183.08,4078.97,3861.03,4314.87,4184.62,4600.51,4602.05,4330.26,3956.41,4301.54,4661.03,4311.79,4669.23,1692,1710,6.484,0,0,0,0,1,0,
23,4058.97,4183.59,4081.54,3864.62,4318.97,4186.15,4598.97,4601.03,4333.85,3961.03,4304.1,4660,4311.28,4671.79,1691,1711,6.492,0,0,0,0,1,0,
24,4056.92,4178.97,4081.54,3864.1,4320,4184.1,4595.9,4598.97,4333.85,3951.28,4300.51,4655.9,4300.51,4668.72,1692,1711,6.5,0,0,0,0,1,0,
25,4055.9,4178.46,4080,3863.08,4312.82,4178.46,4594.36,4596.92,4329.23,3950.26,4293.85,4654.87,4296.41,4664.62,1691,1711,6.508,0,0,0,0,1,0,
26,4054.87,4178.97,4081.03,3864.62,4312.82,4180,4596.92,4593.33,4323.59,3954.87,4293.33,4655.38,4298.97,4667.18,1691,1711,6.515,0,0,0,0,1,0,
27,4053.85,4174.87,4081.03,3867.18,4318.97,4186.15,4601.03,4595.9,4326.67,3948.72,4298.97,4657.44,4302.56,4673.33,1691,1712,6.523,0,0,0,0,1,0,
28,4055.9,4175.38,4077.44,3865.64,4315.38,4186.67,4600,4600.51,4331.79,3948.21,4299.49,4657.44,4307.18,4671.79,1692,1711,6.531,0,0,0,0,1,0,
29,4056.92,4177.44,4077.44,3861.54,4313.85,4183.59,4599.49,4597.95,4330.26,3953.33,4299.49,4655.9,4306.15,4668.21,1690,1713,6.539,0,0,0,0,1,0,
30,4057.95,4177.44,4081.54,3869.23,4324.62,4186.15,4601.54,4591.28,4327.69,3950.77,4297.95,4655.9,4304.1,4671.79,1692,1712,6.547,0,0,0,0,1,0,
31,4054.87,4176.41,4080,3875.9,4327.69,4190.26,4600,4584.1,4324.62,3949.23,4293.85,4657.44,4306.15,4668.72,1691,1712,6.555,0,0,0,0,1,0,
32,4052.31,4177.95,4075.38,3868.72,4320,4187.18,4597.44,4582.56,4319.49,3951.28,4295.38,4655.9,4305.64,4663.08,1692,1712,6.562,0,0,0,0,1,0,
33,4055.38,4183.08,4078.97,3864.1,4320.51,4184.62,4602.05,4588.21,4324.1,3952.82,4297.95,4657.95,4306.15,4667.69,1691,1711,6.57,0,0,0,0,1,0,
34,4055.9,4184.1,4083.08,3867.69,4321.03,4182.05,4604.62,4590.77,4332.82,3953.33,4293.33,4661.54,4307.18,4671.28,1692,1710,6.578,0,0,0,0,1,0,
35,4050.77,4174.87,4083.59,3866.67,4316.41,4177.95,4599.49,4590.26,4328.72,3947.69,4290.77,4660,4301.54,4666.15,1691,1711,6.586,0,0,0,0,1,0,
36,4048.21,4165.64,4083.59,3861.54,4310.77,4177.44,4596.92,4588.21,4322.56,3936.92,4291.79,4658.46,4298.46,4665.64,1692,1712,6.594,0,0,0,0,1,0,
37,4048.72,4167.69,4080,3860.51,4305.13,4180,4599.49,4585.64,4321.54,3940,4285.64,4655.9,4302.05,4667.18,1690,1711,6.602,0,0,0,0,1,0,
38,4051.79,4174.87,4077.44,3868.72,4312.31,4182.05,4602.56,4590.26,4324.62,3951.28,4283.59,4653.33,4303.59,4665.64,1691,1712,6.609,0,0,0,0,1,0,
39,4054.87,4176.41,4079.49,3877.95,4320,4184.62,4601.54,4594.87,4330.26,3953.33,4290.26,4655.9,4307.69,4666.15,1690,1711,6.617,0,0,0,0,1,0,
40,4051.79,4175.38,4078.46,3869.23,4314.87,4186.15,4599.49,4591.28,4333.33,3951.28,4292.82,4661.54,4312.31,4667.69,1690,1713,6.625,0,0,0,0,1,0,
41,4049.74,4180,4078.97,3857.95,4316.92,4184.62,4598.46,4588.21,4330.77,3954.87,4293.33,4663.59,4314.36,4670.77,1690,1711,6.633,0,0,0,0,1,0,
42,4055.9,4184.62,4083.08,3864.62,4330.26,4181.54,4597.95,4590.26,4328.21,3958.46,4292.31,4662.56,4315.38,4674.87,1689,1712,6.641,0,0,0,0,1,0,
43,4059.49,4178.46,4082.56,3868.72,4330.26,4180.51,4597.95,4590.77,4330.77,3955.9,4289.23,4663.59,4315.9,4674.87,1690,1712,6.648,0,0,0,0,1,0,
44,4054.36,4173.33,4080.51,3861.54,4317.95,4180,4596.41,4586.67,4330.26,3952.82,4284.62,4664.1,4312.82,4674.36,1690,1711,6.656,0,0,0,0,1,0,
45,4048.72,4171.79,4081.54,3862.56,4312.31,4176.41,4595.9,4585.13,4321.03,3950.77,4282.05,4657.95,4307.69,4671.28,1690,1712,6.664,0,0,0,0,1,0,
46,4042.56,4167.69,4076.41,3865.64,4310.77,4174.87,4598.97,4584.1,4317.95,3943.08,4277.95,4650.77,4301.54,4664.62,1689,1712,6.672,0,0,0,0,1,0,
