eeg data - format version 0.2: COUNTER,AF3,F7,F3, FC5, T7, P7, O1, O2,P8, T8, FC6, F4,F8, AF4,GYROX, GYROY, TIMESTAMP, FUNC_ID, FUNC_VALUE, MARKER, SYNC_SIGNAL, Cognitiv Action, Cognitiv Power,
105,4070.26,4108.72,4053.85,3832.31,4294.36,4153.85,4581.54,4580.51,4294.36,3907.69,4269.74,4597.44,4279.49,4597.95,1699,1702,0.092,0,0,0,0,1,0,
106,4067.18,4102.05,4050.77,3834.36,4294.36,4153.33,4585.13,4584.1,4297.95,3907.69,4256.41,4594.36,4268.72,4591.28,1697,1702,0.1,0,0,0,0,1,0,
107,4064.62,4104.1,4051.79,3831.79,4292.82,4152.82,4583.59,4585.64,4304.1,3909.74,4260,4593.33,4262.56,4590.77,1697,1702,0.108,0,0,0,0,1,0,
108,4060,4106.67,4047.18,3828.72,4286.67,4151.79,4574.87,4580,4298.46,3908.21,4265.13,4589.23,4263.08,4587.69,1695,1701,0.116,0,0,0,0,1,0,
109,4058.46,4104.62,4043.08,3829.23,4287.18,4150.26,4572.31,4582.56,4294.36,3909.74,4261.03,4586.67,4267.18,4585.13,1694,1702,0.125,0,0,0,0,1,0,
110,4064.1,4104.1,4048.72,3831.28,4292.31,4150.77,4576.41,4585.64,4296.92,3909.23,4261.54,4593.33,4274.36,4591.28,1691,1701,0.132,0,0,0,0,1,0,
111,4069.74,4112.82,4053.85,3834.87,4295.38,4151.79,4579.49,4581.03,4297.95,3908.21,4274.36,4603.08,4282.05,4599.49,1688,1702,0.139,0,0,0,0,1,0,
112,4072.82,4120.51,4052.31,3835.9,4296.41,4152.31,4582.05,4583.08,4299.49,3916.41,4283.08,4603.08,4284.1,4601.03,1686,1702,0.147,0,0,0,0,1,0,
113,4071.28,4111.28,4050.26,3832.31,4296.41,4152.82,4580.51,4582.05,4296.92,3920,4272.31,4593.85,4280.51,4597.44,1684,1703,0.155,0,0,0,0,1,0,
114,4069.74,4107.18,4052.31,3838.97,4295.38,4153.85,4577.95,4571.79,4290.77,3909.74,4260,4591.28,4277.44,4595.9,1683,1702,0.163,0,0,0,0,1,0,
115,4074.87,4116.92,4056.92,3846.15,4293.85,4153.33,4576.41,4575.38,4294.36,3908.21,4270.26,4599.49,4279.49,4598.97,1680,1704,0.171,0,0,0,0,1,0,
116,4077.44,4115.9,4055.38,3837.95,4295.9,4154.87,4576.41,4587.18,4300.51,3917.44,4280.51,4602.56,4283.59,4601.54,1680,1704,0.178,0,0,0,0,1,0,
117,4072.31,4104.62,4048.21,3828.72,4293.33,4153.33,4575.9,4585.64,4296.41,3912.31,4269.74,4596.92,4277.44,4597.95,1678,1705,0.186,0,0,0,0,1,0,
118,4071.28,4103.08,4051.28,3830.26,4290.77,4148.72,4577.95,4581.03,4294.87,3909.74,4268.21,4598.97,4275.9,4597.95,1678,1707,0.194,0,0,0,0,1,0,
119,4077.44,4108.72,4060.51,3832.82,4295.38,4149.23,4581.03,4590.26,4306.67,3926.67,4286.15,4604.62,4291.79,4603.59,1676,1709,0.202,0,0,0,0,1,0,
120,4076.92,4103.59,4058.46,3832.82,4292.31,4152.31,4584.1,4595.9,4311.79,3929.23,4290.26,4603.08,4298.97,4602.56,1674,1712,0.21,0,0,0,0,1,0,
121,4071.28,4100,4053.33,3834.36,4284.1,4152.82,4588.21,4588.72,4301.54,3915.9,4281.54,4601.03,4288.72,4597.95,1673,1715,0.219,0,0,0,0,1,0,
122,4072.31,4101.54,4056.92,3833.33,4288.21,4153.85,4586.15,4584.1,4298.97,3912.31,4278.97,4600,4285.64,4597.95,1672,1720,0.226,0,0,0,0,1,0,
123,4076.92,4102.56,4061.03,3833.33,4292.31,4152.82,4575.38,4582.05,4303.59,3913.33,4274.36,4599.49,4290.26,4599.49,1672,1725,0.233,0,0,0,0,1,0,
124,4077.44,4103.59,4062.05,3836.92,4287.69,4150.77,4568.72,4576.41,4298.97,3916.92,4271.79,4602.05,4294.36,4600,1672,1731,0.242,0,0,0,0,1,0,
125,4076.41,4102.56,4060.51,3835.38,4290.26,4150.77,4575.9,4571.28,4292.82,3921.54,4279.49,4603.08,4294.87,4600.51,1675,1738,0.25,0,0,0,0,1,0,
126,4076.41,4101.54,4056.92,3831.28,4298.97,4153.85,4583.59,4574.36,4295.38,3918.97,4273.85,4600,4287.18,4600,1679,1740,0.257,0,0,0,0,1,0,
127,4074.87,4101.03,4055.9,3831.79,4297.44,4158.97,4584.1,4580,4298.97,3917.44,4264.62,4597.95,4280,4597.44,1682,1739,0.265,0,0,0,0,1,0,
128,4073.33,4096.92,4058.97,3833.85,4294.87,4160.51,4586.67,4584.1,4302.05,3918.46,4274.87,4600,4283.08,4596.92,1685,1739,0.272,0,0,0,0,1,0,
0,4075.9,4096.92,4060,3832.31,4301.54,4155.38,4587.69,4585.64,4307.18,3919.49,4284.1,4602.05,4283.08,4601.54,1688,1737,0.28,0,0,0,0,1,0,
1,4074.87,4097.95,4055.38,3830.26,4302.05,4152.31,4584.1,4578.97,4303.08,3919.49,4272.82,4600,4273.33,4598.46,1691,1735,0.288,0,0,0,0,1,0,
2,4067.69,4092.82,4051.28,3832.82,4294.36,4151.79,4580.51,4570.77,4294.87,3915.38,4263.08,4596.92,4273.33,4588.21,1693,1733,0.296,0,0,0,0,1,0,
3,4069.23,4093.85,4053.85,3836.41,4297.44,4150.77,4581.54,4566.67,4289.23,3912.82,4264.62,4597.95,4280.51,4591.28,1695,1731,0.304,0,0,0,0,1,0,
4,4076.92,4108.72,4058.46,3836.92,4306.67,4151.28,4587.18,4569.23,4293.85,3918.97,4266.67,4601.54,4278.97,4602.56,1696,1727,0.311,0,0,0,0,1,0,
5,4077.44,4111.79,4059.49,3835.38,4308.21,4155.38,4587.18,4572.31,4303.59,3923.59,4265.64,4601.54,4278.46,4602.05,1696,1724,0.32,0,0,0,0,1,0,
6,4073.85,4102.56,4056.41,3830.77,4307.18,4154.87,4580,4570.26,4301.03,3923.08,4265.64,4598.97,4284.1,4595.38,1700,1721,0.327,0,0,0,0,1,0,
7,4074.36,4102.56,4052.82,3830.77,4308.21,4153.33,4578.97,4568.72,4292.31,3921.54,4264.1,4598.97,4281.54,4595.38,1700,1719,0.335,0,0,0,0,1,0,
8,4077.44,4111.28,4054.87,3840,4311.28,4157.44,4584.62,4569.23,4291.28,3914.36,4262.56,4600.51,4278.46,4598.97,1701,1719,0.343,0,0,0,0,1,0,
9,4080,4117.44,4063.08,3849.23,4315.9,4158.46,4586.15,4569.23,4294.36,3912.31,4275.9,4601.03,4284.62,4601.54,1702,1716,0.351,0,0,0,0,1,0,
10,4084.62,4116.92,4067.69,3848.72,4316.92,4155.9,4585.64,4570.26,4293.33,3914.36,4279.49,4601.54,4286.67,4602.56,1701,1716,0.358,0,0,0,0,1,0,
11,4086.15,4116.41,4067.18,3844.1,4315.38,4157.44,4587.69,4576.41,4294.36,3913.33,4263.59,4604.1,4284.62,4602.56,1701,1713,0.366,0,0,0,0,1,0,
12,4084.62,4121.03,4063.08,3844.1,4317.44,4156.92,4586.15,4574.36,4296.92,3918.97,4264.62,4605.13,4289.23,4603.59,1702,1711,0.374,0,0,0,0,1,0,
13,4086.15,4126.15,4061.03,3846.67,4318.97,4156.92,4587.18,4571.28,4297.44,3925.64,4281.03,4603.59,4292.82,4603.59,1701,1710,0.382,0,0,0,0,1,0,
14,4088.72,4120.51,4064.62,3848.72,4316.41,4162.05,4591.79,4578.97,4301.54,3926.15,4274.87,4602.56,4290.77,4603.59,1699,1710,0.39,0,0,0,0,1,0,
15,4088.72,4112.31,4067.69,3846.67,4313.33,4161.03,4590.26,4584.62,4305.64,3926.67,4267.18,4605.13,4294.36,4602.05,1700,1710,0.397,0,0,0,0,1,0,
16,4085.64,4114.36,4064.62,3843.08,4311.79,4155.38,4585.13,4581.54,4303.08,3924.1,4275.9,4608.72,4296.92,4600,1699,1711,0.405,0,0,0,0,1,0,
17,4084.1,4123.59,4061.03,3844.1,4313.33,4156.92,4587.18,4580.51,4297.95,3919.49,4274.36,4606.15,4286.67,4602.56,1700,1712,0.413,0,0,0,0,1,0,
18,4088.21,4125.64,4063.59,3846.67,4312.82,4158.46,4589.23,4585.13,4300,3924.62,4273.33,4606.67,4284.62,4604.1,1700,1713,0.421,0,0,0,0,1,0,
19,4088.72,4116.92,4065.13,3846.67,4310.26,4154.36,4586.15,4583.59,4302.05,3934.87,4280,4612.31,4292.82,4602.05,1701,1714,0.429,0,0,0,0,1,0,
20,4082.56,4112.31,4061.54,3847.18,4311.79,4153.33,4585.64,4577.44,4299.49,3934.36,4272.82,4608.21,4290.77,4601.54,1702,1711,0.437,0,0,0,0,1,0,
21,4083.08,4114.36,4060,3845.13,4310.26,4152.82,4585.13,4570.77,4295.38,3928.72,4263.08,4603.59,4284.1,4602.05,1702,1710,0.444,0,0,0,0,1,0,
22,4087.69,4117.44,4062.05,3837.44,4309.23,4153.33,4580.51,4568.21,4294.87,3926.15,4267.69,4607.18,4284.62,4600,1703,1709,0.452,0,0,0,0,1,0,
23,4083.08,4116.41,4060.51,3835.9,4311.79,4154.87,4581.54,4570.77,4295.38,3922.56,4265.64,4605.13,4283.59,4600,1702,1710,0.46,0,0,0,0,1,0,
24,4080,4115.9,4059.49,3845.64,4311.28,4149.23,4581.54,4572.31,4296.41,3923.08,4261.54,4602.05,4281.03,4601.54,1701,1710,0.468,0,0,0,0,1,0,
25,4087.69,4124.62,4063.59,3852.82,4311.79,4145.64,4578.46,4571.79,4297.44,3933.33,4267.18,4610.77,4290.26,4602.56,1699,1711,0.476,0,0,0,0,1,0,
26,4084.62,4123.59,4059.49,3842.56,4312.82,4149.74,4581.54,4569.74,4293.33,3930.26,4267.18,4609.23,4293.85,4603.08,1700,1711,0.483,0,0,0,0,1,0,
27,4074.87,4109.74,4050.77,3829.74,4303.59,4149.23,4585.64,4568.72,4290.77,3911.79,4262.56,4599.49,4285.13,4598.46,1698,1712,0.491,0,0,0,0,1,0,
28,4075.38,4103.59,4051.79,3833.33,4293.85,4147.18,4585.64,4573.33,4295.38,3914.87,4266.67,4601.54,4287.18,4596.92,1698,1712,0.499,0,0,0,0,1,0,
29,4075.9,4107.18,4052.31,3837.95,4297.44,4148.21,4582.56,4576.92,4296.92,3927.69,4265.64,4603.08,4292.82,4598.46,1697,1712,0.507,0,0,0,0,1,0,
30,4073.33,4108.72,4048.72,3832.82,4301.54,4146.15,4580.51,4573.33,4292.82,3924.62,4260,4598.97,4287.69,4595.9,1696,1715,0.515,0,0,0,0,1,0,
31,4082.05,4113.85,4052.82,3837.44,4304.1,4146.15,4582.56,4570.77,4296.92,3929.74,4267.69,4604.62,4287.18,4598.97,1696,1715,0.523,0,0,0,0,1,0,
32,4090.26,4123.08,4060.51,3849.23,4309.23,4151.79,4582.56,4572.82,4301.03,3942.05,4275.38,4609.74,4297.44,4606.67,1696,1716,0.531,0,0,0,0,1,0,
33,4086.67,4123.59,4061.54,3847.69,4310.77,4154.36,4576.41,4570.26,4292.82,3934.36,4268.72,4605.13,4300,4604.62,1696,1714,0.538,0,0,0,0,1,0,
34,4083.59,4120,4058.46,3842.56,4308.21,4149.74,4577.95,4567.18,4289.74,3923.08,4262.56,4601.54,4293.33,4597.95,1694,1713,0.547,0,0,0,0,1,0,
35,4084.1,4119.49,4054.87,3846.15,4308.72,4147.69,4586.15,4569.74,4295.38,3924.1,4261.03,4603.08,4292.31,4597.95,1694,1709,0.554,0,0,0,0,1,0,
36,4086.15,4122.56,4055.38,3849.74,4309.74,4149.74,4583.08,4569.23,4294.36,3920.51,4265.64,4604.1,4297.95,4600.51,1693,1706,0.562,0,0,0,0,1,0,
37,4088.21,4120.51,4059.49,3848.21,4310.77,4151.28,4580,4565.64,4292.31,3920,4268.72,4602.56,4299.49,4600,1692,1704,0.569,0,0,0,0,1,0,
38,4086.67,4113.33,4057.44,3846.15,4311.79,4154.36,4586.15,4569.74,4297.44,3928.72,4267.18,4602.56,4296.92,4598.97,1690,1703,0.577,0,0,0,0,1,0,
39,4086.15,4114.87,4055.38,3847.69,4310.77,4154.87,4587.18,4571.79,4296.41,3930.26,4269.23,4604.62,4298.97,4598.46,1690,1702,0.585,0,0,0,0,1,0,
40,4086.15,4120,4058.97,3842.56,4310.26,4148.72,4583.59,4567.69,4290.77,3923.59,4272.31,4603.08,4303.08,4600,1688,1702,0.593,0,0,0,0,1,0,
41,4086.15,4120,4060.51,3835.9,4306.67,4145.13,4583.59,4572.31,4298.97,3928.21,4271.79,4603.59,4298.97,4601.03,1688,1706,0.601,0,0,0,0,1,0,
42,4088.21,4117.95,4059.49,3842.56,4301.54,4151.28,4585.13,4579.49,4305.64,3933.33,4268.72,4606.67,4297.44,4601.54,1689,1707,0.61,0,0,0,0,1,0,
43,4088.72,4118.97,4060.51,3850.77,4304.62,4152.31,4584.62,4572.31,4294.36,3921.54,4273.33,4609.23,4299.49,4601.54,1689,1714,0.616,0,0,0,0,1,0,
44,4085.13,4120.51,4062.05,3845.64,4311.28,4149.74,4583.59,4566.15,4287.18,3914.87,4277.95,4610.26,4295.9,4600.51,1692,1717,0.625,0,0,0,0,1,0,
45,4087.69,4117.44,4061.54,3844.62,4311.28,4152.82,4586.15,4569.23,4293.33,3920.51,4271.79,4609.23,4292.82,4599.49,1694,1721,0.632,0,0,0,0,1,0,
46,4093.33,4113.33,4062.56,3849.23,4309.74,4154.36,4587.18,4569.23,4294.87,3924.62,4262.05,4610.26,4301.54,4601.54,1697,1724,0.64,0,0,0,0,1,0,
47,4088.72,4116.41,4062.05,3844.1,4311.28,4152.82,4584.1,4567.69,4293.33,3921.54,4261.03,4611.79,4310.26,4602.05,1699,1724,0.648,0,0,0,0,1,0,
48,4083.08,4124.1,4056.92,3837.95,4310.26,4154.36,4584.62,4569.74,4296.41,3919.49,4267.18,4607.18,4302.05,4598.97,1701,1725,0.655,0,0,0,0,1,0,
49,4085.13,4121.54,4055.38,3842.56,4312.31,4155.38,4592.31,4568.72,4296.41,3920.51,4263.59,4599.49,4287.18,4597.44,1703,1725,0.663,0,0,0,0,1,0,
50,4088.72,4119.49,4060,3848.21,4314.36,4153.85,4595.38,4564.62,4298.46,3925.13,4260,4603.08,4289.74,4597.95,1706,1726,0.671,0,0,0,0,1,0,
51,4087.69,4122.05,4062.05,3848.72,4312.82,4153.85,4591.79,4569.74,4308.21,3933.85,4268.72,4610.26,4304.1,4600.51,1707,1725,0.679,0,0,0,0,1,0,
52,4088.21,4122.56,4064.62,3845.64,4314.36,4153.33,4590.26,4582.05,4314.36,3942.05,4278.46,4614.36,4308.21,4605.64,1709,1723,0.687,0,0,0,0,1,0,
53,4092.31,4125.13,4068.72,3849.74,4314.87,4151.28,4589.74,4582.05,4312.31,3945.64,4272.82,4615.9,4302.56,4606.15,1708,1719,0.695,0,0,0,0,1,0,
54,4091.79,4125.64,4065.64,3858.46,4310.77,4149.74,4585.64,4570.77,4313.85,3942.05,4263.08,4611.28,4299.49,4600.51,1707,1716,0.702,0,0,0,0,1,0,
55,4088.21,4122.05,4060.51,3854.36,4310.26,4151.79,4585.13,4569.74,4319.49,3940,4267.69,4605.64,4300,4599.49,1705,1712,0.71,0,0,0,0,1,0,
56,4087.69,4123.08,4061.54,3843.59,4313.85,4151.28,4587.69,4572.31,4320.51,3938.97,4269.74,4606.67,4298.46,4601.03,1705,1708,0.718,0,0,0,0,1,0,
57,4090.26,4126.15,4063.08,3845.64,4314.87,4148.72,4586.15,4567.69,4320.51,3939.49,4263.08,4611.79,4295.38,4599.49,1702,1703,0.726,0,0,0,0,1,0,
58,4090.26,4126.67,4062.05,3852.82,4315.38,4151.28,4585.64,4568.21,4321.54,3938.46,4263.59,4611.28,4294.87,4600,1700,1701,0.734,0,0,0,0,1,0,
59,4087.18,4126.15,4060,3850.26,4317.44,4153.85,4586.15,4570.77,4321.54,3927.69,4266.15,4604.1,4296.92,4600.51,1697,1699,0.742,0,0,0,0,1,0,
60,4087.18,4125.13,4058.97,3845.64,4315.38,4151.79,4585.64,4566.67,4323.08,3929.23,4265.13,4602.05,4298.46,4598.46,1695,1699,0.749,0,0,0,0,1,0,
61,4090.77,4129.23,4058.97,3854.87,4316.41,4151.79,4588.21,4572.82,4324.1,3945.13,4264.62,4606.15,4298.46,4597.95,1693,1697,0.757,0,0,0,0,1,0,
62,4091.79,4136.41,4060.51,3864.62,4322.05,4152.82,4589.74,4583.08,4324.1,3948.21,4264.62,4607.69,4297.95,4601.03,1688,1698,0.765,0,0,0,0,1,0,
63,4091.28,4133.85,4062.05,3857.95,4323.08,4150.77,4587.69,4578.46,4323.08,3940.51,4264.1,4607.69,4299.49,4602.05,1687,1698,0.774,0,0,0,0,1,0,
64,4091.79,4129.74,4061.54,3846.15,4323.08,4153.33,4588.72,4575.9,4324.1,3943.08,4266.67,4609.74,4304.62,4601.54,1684,1698,0.781,0,0,0,0,1,0,
65,4090.77,4129.74,4059.49,3846.15,4321.03,4155.9,4590.26,4579.49,4323.08,3943.08,4269.23,4608.72,4305.13,4600,1683,1698,0.788,0,0,0,0,1,0,
66,4089.74,4125.64,4058.97,3847.18,4317.44,4153.85,4586.15,4581.54,4321.03,3931.28,4270.26,4605.64,4301.03,4598.46,1682,1698,0.796,0,0,0,0,1,0,
67,4088.21,4121.54,4060,3846.15,4313.33,4151.28,4581.54,4581.03,4320,3928.21,4268.72,4602.56,4302.05,4599.49,1681,1700,0.804,0,0,0,0,1,0,
68,4088.72,4121.54,4060,3850.77,4310.77,4146.67,4582.56,4576.92,4318.46,3938.46,4265.64,4602.56,4308.72,4600,1679,1701,0.812,0,0,0,0,1,0,
69,4091.79,4121.03,4061.54,3849.23,4313.33,4145.13,4584.1,4571.79,4317.95,3946.67,4271.28,4605.13,4311.79,4601.54,1680,1703,0.82,0,0,0,0,1,0,
70,4088.21,4117.95,4059.49,3842.56,4313.33,4145.64,4583.08,4569.74,4311.28,3936.41,4273.85,4602.56,4301.03,4596.92,1680,1704,0.829,0,0,0,0,1,0,
71,4083.59,4118.97,4055.9,3844.62,4309.74,4145.64,4581.54,4570.77,4310.26,3924.62,4263.08,4598.97,4292.31,4589.23,1680,1708,0.835,0,0,0,0,1,0,
72,4090.26,4123.08,4063.59,3852.31,4315.9,4149.74,4586.15,4577.95,4321.03,3934.87,4262.05,4606.67,4301.03,4595.9,1683,1709,0.843,0,0,0,0,1,0,
73,4093.85,4123.08,4072.31,3849.74,4325.13,4155.38,4593.33,4589.74,4328.72,3947.69,4271.28,4613.85,4307.18,4603.08,1683,1711,0.851,0,0,0,0,1,0,
74,4086.67,4122.56,4065.13,3844.62,4318.46,4155.9,4593.85,4589.23,4328.21,3945.13,4268.21,4607.18,4302.56,4600,1686,1712,0.859,0,0,0,0,1,0,
75,4085.13,4123.08,4055.9,3846.15,4312.31,4153.33,4590.77,4582.05,4325.64,3942.56,4264.1,4603.08,4305.64,4597.95,1686,1714,0.868,0,0,0,0,1,0,
76,4087.69,4118.46,4059.49,3846.15,4318.46,4155.38,4591.79,4586.15,4321.54,3942.56,4269.23,4606.15,4307.69,4595.38,1688,1716,0.874,0,0,0,0,1,0,
77,4087.69,4113.33,4062.05,3843.08,4318.97,4155.9,4593.33,4587.18,4313.85,3935.9,4265.13,4603.59,4295.9,4593.85,1689,1717,0.882,0,0,0,0,1,0,
78,4088.21,4118.46,4058.46,3843.59,4316.92,4153.85,4588.72,4576.41,4313.85,3933.33,4261.03,4602.05,4293.85,4596.41,1690,1718,0.891,0,0,0,0,1,0,
79,4086.67,4123.59,4059.49,3846.15,4321.54,4151.79,4585.13,4571.28,4313.33,3933.85,4267.18,4605.64,4303.59,4594.87,1691,1718,0.898,0,0,0,0,1,0,
80,4083.59,4120.51,4058.46,3845.13,4320.51,4151.28,4586.67,4573.85,4308.72,3928.21,4263.59,4603.08,4300,4587.69,1692,1717,0.906,0,0,0,0,1,0,
81,4084.62,4117.44,4055.38,3845.64,4312.82,4151.28,4587.69,4573.33,4308.21,3925.64,4258.97,4599.49,4292.31,4587.18,1692,1716,0.914,0,0,0,0,1,0,
82,4086.15,4118.46,4056.92,3848.72,4313.33,4153.85,4586.15,4570.26,4311.28,3926.67,4268.72,4602.56,4296.92,4591.28,1691,1717,0.921,0,0,0,0,1,0,
83,4088.21,4121.54,4059.49,3843.59,4320,4154.36,4586.15,4571.28,4311.79,3927.18,4273.85,4603.59,4302.56,4596.41,1692,1715,0.929,0,0,0,0,1,0,
84,4090.26,4121.54,4060,3837.44,4316.41,4143.59,4585.64,4569.74,4308.21,3930.26,4266.15,4602.05,4298.97,4600.51,1691,1715,0.937,0,0,0,0,1,0,
85,4088.72,4118.46,4059.49,3841.03,4311.28,4138.46,4583.08,4566.67,4307.18,3928.72,4262.05,4601.03,4292.82,4599.49,1693,1714,0.945,0,0,0,0,1,0,
86,4087.69,4120,4061.03,3846.67,4316.41,4148.21,4585.13,4568.72,4308.72,3925.13,4266.15,4601.03,4293.33,4598.46,1692,1713,0.953,0,0,0,0,1,0,
87,4091.79,4123.08,4061.03,3848.21,4316.92,4154.36,4587.18,4568.72,4311.28,3932.82,4266.67,4605.13,4302.05,4599.49,1692,1714,0.96,0,0,0,0,1,0,
88,4090.26,4120.51,4060,3845.13,4312.31,4151.28,4586.67,4569.74,4313.33,3942.56,4265.13,4607.69,4307.18,4598.46,1692,1712,0.968,0,0,0,0,1,0,
89,4085.64,4115.38,4061.03,3835.9,4313.85,4150.77,4590.26,4572.31,4314.36,3943.59,4263.59,4604.1,4302.05,4597.44,1692,1712,0.976,0,0,0,0,1,0,
90,4087.18,4115.38,4061.54,3834.87,4316.41,4152.31,4591.79,4571.79,4315.38,3941.54,4264.1,4600.51,4299.49,4598.97,1691,1711,0.985,0,0,0,0,1,0,
91,4087.69,4118.97,4059.49,3845.13,4310.26,4151.79,4589.23,4570.77,4317.95,3941.54,4266.67,4601.54,4303.08,4599.49,1691,1712,0.992,0,0,0,0,1,0,
92,4086.67,4121.03,4061.54,3851.28,4308.72,4154.36,4591.28,4572.31,4322.56,3943.08,4265.64,4606.67,4305.64,4598.97,1691,1711,1,0,0,0,0,1,0,
93,4090.77,4122.05,4066.67,3845.13,4316.92,4152.31,4591.79,4571.79,4320.51,3947.69,4268.72,4611.28,4310.77,4601.54,1690,1712,1.007,0,0,0,0,1,0,
94,4089.23,4122.56,4061.03,3835.9,4315.9,4148.21,4587.69,4567.18,4312.82,3939.49,4270.26,4607.18,4310.26,4596.41,1691,1711,1.015,0,0,0,0,1,0,
95,4081.54,4118.97,4054.36,3835.38,4304.1,4149.23,4589.23,4569.23,4309.23,3926.15,4261.54,4600.51,4301.03,4590.26,1689,1713,1.023,0,0,0,0,1,0,
96,4087.18,4118.46,4062.56,3847.18,4304.62,4150.77,4592.82,4566.15,4309.74,3928.21,4258.97,4604.62,4303.08,4595.9,1690,1713,1.031,0,0,0,0,1,0,
97,4094.87,4129.23,4070.26,3852.31,4313.33,4149.23,4588.72,4560,4308.21,3931.79,4263.59,4610.26,4309.74,4603.08,1689,1712,1.039,0,0,0,0,1,0,
98,4088.21,4134.87,4066.15,3846.67,4312.31,4149.23,4585.13,4562.56,4308.21,3933.85,4265.13,4609.74,4308.21,4599.49,1690,1712,1.047,0,0,0,0,1,0,
99,4086.15,4128.21,4067.18,3846.15,4311.28,4151.79,4588.21,4563.59,4311.28,3943.08,4266.15,4610.26,4310.26,4599.49,1690,1710,1.054,0,0,0,0,1,0,
100,4090.77,4121.54,4071.28,3848.21,4312.31,4151.79,4588.21,4561.03,4310.77,3944.62,4266.15,4607.69,4310.26,4602.05,1690,1712,1.062,0,0,0,0,1,0,
101,4087.18,4121.03,4064.1,3848.21,4307.18,4150.77,4585.64,4566.15,4310.77,3936.41,4257.95,4602.56,4300,4597.44,1690,1711,1.071,0,0,0,0,1,0,
102,4083.59,4122.56,4058.46,3849.23,4305.64,4150.26,4589.74,4573.33,4313.33,3940,4257.44,4602.56,4299.49,4593.85,1689,1711,1.078,0,0,0,0,1,0,
103,4088.72,4122.56,4060.51,3846.67,4310.77,4151.28,4593.33,4569.23,4311.79,3945.13,4262.05,4603.59,4306.15,4598.46,1690,1711,1.086,0,0,0,0,1,0,
104,4088.72,4122.05,4061.54,3844.62,4311.79,4152.31,4591.28,4562.05,4311.28,3937.95,4254.36,4603.59,4302.05,4601.03,1689,1710,1.093,0,0,0,0,1,0,
105,4086.15,4121.54,4060,3846.67,4304.1,4150.26,4586.15,4558.97,4311.79,3929.74,4256.92,4604.1,4300.51,4593.85,1689,1709,1.102,0,0,0,0,1,0,
106,4087.18,4120,4058.46,3847.18,4303.08,4148.72,4585.13,4554.87,4310.26,3926.15,4262.05,4602.05,4309.23,4586.15,1687,1709,1.11,0,0,0,0,1,0,
107,4085.64,4122.56,4059.49,3844.62,4309.74,4149.74,4589.74,4557.44,4313.85,3929.23,4250.77,4601.03,4308.72,4588.21,1687,1709,1.117,0,0,0,0,1,0,
108,4086.67,4125.64,4064.1,3845.13,4312.31,4151.28,4591.79,4561.03,4316.92,3933.85,4249.74,4607.18,4305.64,4596.41,1687,1710,1.125,0,0,0,0,1,0,
109,4091.28,4124.62,4063.08,3849.23,4309.23,4151.28,4588.72,4557.95,4311.28,3933.85,4257.44,4609.74,4312.31,4600.51,1686,1710,1.134,0,0,0,0,1,0,
110,4092.82,4129.23,4061.54,3852.82,4310.77,4150.77,4586.15,4554.87,4310.26,3937.44,4255.38,4606.67,4313.85,4601.54,1685,1710,1.14,0,0,0,0,1,0,
111,4091.28,4136.41,4066.15,3849.23,4315.38,4151.28,4586.67,4555.38,4313.33,3943.08,4251.28,4606.67,4309.23,4600.51,1685,1709,1.148,0,0,0,0,1,0,
112,4088.21,4128.72,4062.05,3843.08,4315.9,4152.31,4587.18,4555.9,4312.82,3936.92,4255.38,4606.15,4311.79,4595.38,1685,1710,1.156,0,0,0,0,1,0,
113,4085.13,4116.41,4053.85,3840.51,4312.82,4152.82,4589.23,4560,4317.44,3925.64,4257.44,4601.54,4313.33,4593.85,1686,1709,1.164,0,0,0,0,1,0,
114,4088.21,4120,4058.97,3844.1,4310.26,4151.28,4585.13,4568.21,4320.51,3928.72,4252.82,4605.13,4309.74,4598.46,1686,1710,1.173,0,0,0,0,1,0,
115,4098.97,4136.41,4069.23,3856.92,4318.46,4152.31,4587.18,4570.26,4321.54,3944.62,4251.28,4615.38,4316.92,4605.64,1688,1710,1.179,0,0,0,0,1,0,
116,4104.1,4137.95,4068.72,3860.51,4327.18,4155.38,4599.49,4571.28,4329.74,3945.13,4254.36,4618.46,4324.1,4606.67,1687,1709,1.187,0,0,0,0,1,0,
117,4100,4125.13,4065.64,3848.21,4322.05,4155.9,4600.51,4572.31,4328.72,3929.74,4257.44,4616.41,4319.49,4604.62,1689,1710,1.195,0,0,0,0,1,0,
118,4098.97,4125.13,4067.69,3843.59,4317.95,4153.85,4593.85,4561.54,4310.77,3927.69,4251.28,4614.36,4318.46,4602.56,1690,1707,1.203,0,0,0,0,1,0,
119,4098.46,4130.26,4066.67,3851.28,4321.54,4152.82,4590.26,4554.36,4305.13,3940,4246.67,4613.85,4322.56,4601.03,1689,1708,1.211,0,0,0,0,1,0,
120,4096.41,4128.72,4066.67,3852.31,4324.1,4154.87,4591.79,4564.62,4316.92,3942.56,4251.28,4615.9,4323.59,4602.56,1691,1707,1.219,0,0,0,0,1,0,
121,4100.51,4131.28,4071.28,3850.26,4323.59,4155.38,4597.44,4572.31,4320,3939.49,4255.38,4616.92,4325.64,4605.64,1691,1708,1.226,0,0,0,0,1,0,
122,4106.67,4137.44,4071.28,3852.31,4322.05,4154.87,4597.44,4564.62,4313.85,3943.59,4256.41,4616.92,4330.77,4606.67,1692,1708,1.234,0,0,0,0,1,0,
123,4099.49,4133.85,4066.15,3849.74,4317.44,4152.31,4586.15,4557.44,4308.72,3942.05,4250.26,4615.9,4327.69,4602.05,1691,1709,1.242,0,0,0,0,1,0,
124,4093.85,4134.36,4066.15,3848.72,4313.33,4144.1,4580.51,4559.49,4310.77,3937.95,4245.64,4614.36,4324.62,4598.46,1691,1709,1.25,0,0,0,0,1,0,
125,4102.56,4138.97,4068.21,3851.79,4318.46,4144.62,4589.23,4567.69,4318.97,3944.1,4257.44,4615.38,4331.79,4605.64,1689,1711,1.258,0,0,0,0,1,0,
126,4106.15,4136.41,4071.28,3851.79,4317.44,4148.21,4591.28,4568.72,4321.54,3943.08,4266.67,4617.95,4335.9,4609.74,1691,1710,1.266,0,0,0,0,1,0,
127,4096.41,4135.9,4071.28,3847.69,4310.77,4145.13,4586.15,4558.46,4315.38,3931.79,4258.97,4615.38,4330.77,4603.59,1689,1710,1.274,0,0,0,0,1,0,
128,4094.36,4140,4067.18,3851.28,4313.85,4148.72,4586.67,4551.79,4309.23,3926.15,4249.23,4611.79,4325.13,4599.49,1689,1712,1.281,0,0,0,0,1,0,
0,4100,4136.41,4067.69,3858.46,4318.46,4153.85,4592.82,4553.85,4309.23,3926.15,4246.15,4613.33,4325.13,4602.05,1688,1711,1.289,0,0,0,0,1,0,
1,4100,4128.21,4075.9,3852.82,4313.85,4146.15,4592.31,4560.51,4313.85,3926.67,4254.36,4616.92,4327.69,4602.56,1688,1712,1.297,0,0,0,0,1,0,
2,4098.97,4133.33,4077.44,3846.15,4316.41,4143.59,4586.15,4564.62,4317.44,3931.79,4264.62,4617.44,4332.82,4601.54,1689,1710,1.305,0,0,0,0,1,0,
3,4097.95,4140.51,4069.23,3850.26,4328.21,4154.36,4586.67,4559.49,4315.38,3932.82,4260,4615.9,4334.87,4603.08,1689,1710,1.312,0,0,0,0,1,0,
4,4094.87,4132.82,4066.67,3849.23,4328.21,4155.9,4592.31,4554.36,4310.26,3924.62,4252.31,4614.36,4330.26,4601.03,1690,1710,1.32,0,0,0,0,1,0,
5,4096.41,4129.23,4071.28,3843.59,4323.59,4151.28,4592.82,4556.41,4309.23,3923.08,4256.41,4614.87,4330.26,4598.97,1690,1710,1.328,0,0,0,0,1,0,
6,4102.05,4141.03,4074.36,3854.36,4325.64,4149.74,4592.82,4560,4312.82,3928.21,4257.95,4616.92,4331.28,4601.54,1691,1709,1.336,0,0,0,0,1,0,
7,4102.56,4145.64,4075.38,3862.56,4326.15,4149.23,4596.92,4562.56,4314.36,3929.23,4256.41,4616.41,4329.23,4602.05,1690,1708,1.344,0,0,0,0,1,0,
8,4095.9,4131.28,4073.33,3851.79,4320,4151.28,4595.38,4567.69,4311.28,3926.67,4255.38,4615.38,4329.74,4600.51,1692,1708,1.351,0,0,0,0,1,0,
9,4092.31,4123.59,4071.28,3845.13,4318.97,4151.79,4591.79,4567.18,4312.82,3925.64,4251.28,4616.41,4332.82,4600,1691,1707,1.359,0,0,0,0,1,0,
10,4094.87,4132.31,4072.31,3849.23,4326.15,4151.28,4595.9,4566.15,4318.46,3928.72,4250.77,4616.41,4332.31,4600.51,1691,1709,1.367,0,0,0,0,1,0,
11,4100.51,4141.03,4075.38,3851.79,4330.26,4153.33,4598.97,4570.77,4315.9,3934.36,4259.49,4616.92,4331.28,4602.05,1692,1708,1.376,0,0,0,0,1,0,
12,4102.56,4138.97,4075.9,3855.9,4325.64,4155.9,4593.33,4568.21,4308.21,3935.38,4257.44,4618.46,4331.28,4603.08,1691,1710,1.383,0,0,0,0,1,0,
13,4099.49,4130.26,4074.87,3855.9,4322.05,4150.77,4588.72,4561.54,4305.64,3930.77,4251.79,4616.41,4332.82,4599.49,1693,1709,1.391,0,0,0,0,1,0,
14,4098.46,4129.74,4077.95,3850.77,4324.1,4146.67,4591.28,4564.62,4314.36,3934.36,4259.49,4617.95,4337.95,4602.56,1691,1708,1.398,0,0,0,0,1,0,
15,4101.54,4132.82,4084.1,3851.79,4325.64,4146.15,4596.41,4570.77,4322.56,3941.03,4263.08,4624.1,4341.03,4609.74,1692,1708,1.406,0,0,0,0,1,0,
16,4101.54,4131.79,4083.08,3850.77,4324.1,4145.64,4600,4571.28,4319.49,3940.51,4262.56,4623.59,4342.56,4607.18,1692,1707,1.414,0,0,0,0,1,0,
17,4099.49,4133.85,4076.92,3850.77,4323.59,4148.72,4600.51,4568.21,4313.85,3941.54,4264.62,4620.51,4342.05,4602.05,1692,1707,1.422,0,0,0,0,1,0,
18,4100.51,4135.9,4075.38,3857.95,4326.15,4153.33,4598.97,4569.23,4314.36,3940.51,4257.95,4621.54,4340.51,4603.59,1692,1707,1.43,0,0,0,0,1,0,
19,4097.95,4132.82,4077.44,3855.9,4327.18,4152.82,4600,4570.26,4314.36,3933.85,4248.72,4620,4343.59,4603.59,1693,1707,1.438,0,0,0,0,1,0,
20,4090.77,4130.77,4074.36,3846.67,4328.21,4150.77,4596.41,4561.54,4305.64,3929.23,4248.72,4615.9,4341.54,4600.51,1693,1707,1.445,0,0,0,0,1,0,
21,4091.79,4131.79,4069.23,3850.26,4329.74,4152.82,4590.77,4552.82,4297.44,3930.26,4243.59,4613.85,4331.79,4597.95,1693,1709,1.453,0,0,0,0,1,0,
22,4091.79,4124.62,4067.18,3852.31,4325.64,4153.33,4589.23,4553.33,4299.49,3923.08,4234.87,4613.85,4327.69,4595.9,1695,1708,1.461,0,0,0,0,1,0,
23,4087.69,4121.54,4069.74,3844.62,4321.54,4147.69,4588.72,4555.38,4308.72,3919.49,4243.59,4615.38,4333.85,4597.44,1694,1710,1.469,0,0,0,0,1,0,
24,4093.85,4133.85,4073.85,3850.77,4324.1,4145.13,4590.26,4553.85,4312.82,3934.87,4251.79,4616.41,4339.49,4601.54,1695,1710,1.477,0,0,0,0,1,0,
25,4102.56,4137.95,4075.38,3859.49,4327.69,4151.28,4597.44,4558.46,4309.74,3944.1,4245.13,4615.9,4343.59,4601.54,1694,1710,1.484,0,0,0,0,1,0,
26,4095.9,4125.13,4073.85,3849.74,4325.13,4156.92,4604.62,4568.72,4311.28,3932.82,4245.13,4617.44,4344.62,4598.97,1695,1711,1.492,0,0,0,0,1,0,
27,4089.23,4119.49,4071.28,3841.54,4323.59,4153.85,4602.05,4568.72,4318.46,3931.28,4250.77,4617.44,4345.13,4600.51,1694,1710,1.5,0,0,0,0,1,0,
28,4097.44,4130.77,4072.82,3846.67,4330.26,4151.79,4598.97,4567.69,4327.18,3943.08,4250.77,4616.92,4349.23,4603.59,1694,1711,1.508,0,0,0,0,1,0,
29,4099.49,4135.9,4075.9,3850.26,4331.79,4152.31,4600,4570.77,4325.13,3944.62,4243.08,4617.95,4349.74,4603.08,1694,1711,1.516,0,0,0,0,1,0,
30,4090.77,4129.74,4073.33,3848.72,4324.1,4150.77,4597.44,4564.62,4311.79,3937.95,4237.44,4616.92,4344.1,4600.51,1694,1712,1.524,0,0,0,0,1,0,
31,4088.72,4131.28,4071.28,3850.26,4327.18,4151.28,4597.44,4553.33,4306.67,3935.38,4242.56,4615.38,4345.13,4600,1693,1711,1.531,0,0,0,0,1,0,
32,4094.36,4143.08,4074.87,3852.82,4342.56,4153.85,4602.05,4558.97,4317.95,3940,4246.67,4616.41,4351.79,4602.05,1693,1710,1.539,0,0,0,0,1,0,
33,4101.03,4151.28,4076.92,3860.51,4342.56,4153.33,4603.08,4571.28,4326.15,3945.13,4245.13,4618.97,4355.9,4603.08,1692,1709,1.547,0,0,0,0,1,0,
34,4099.49,4145.64,4075.38,3865.64,4328.72,4152.31,4595.38,4563.59,4317.95,3935.38,4246.67,4617.44,4354.87,4601.54,1692,1709,1.555,0,0,0,0,1,0,
35,4092.82,4135.9,4072.31,3855.38,4329.23,4153.33,4592.31,4552.82,4311.79,3928.21,4248.72,4615.38,4353.85,4600,1691,1709,1.563,0,0,0,0,1,0,
36,4092.31,4135.9,4070.26,3846.15,4336.41,4148.21,4594.87,4554.87,4315.38,3941.54,4238.97,4614.87,4354.36,4599.49,1691,1709,1.57,0,0,0,0,1,0,
37,4092.82,4137.95,4071.28,3850.77,4331.28,4143.08,4591.28,4556.92,4314.36,3945.64,4237.95,4615.9,4356.41,4601.03,1689,1709,1.578,0,0,0,0,1,0,
38,4096.41,4135.9,4073.85,3852.31,4326.67,4148.72,4585.13,4554.36,4308.21,3934.36,4251.28,4616.41,4362.05,4606.67,1689,1709,1.586,0,0,0,0,1,0,
39,4102.05,4137.44,4075.9,3846.67,4332.31,4154.87,4589.23,4554.87,4309.74,3937.44,4247.69,4616.92,4361.54,4607.18,1688,1709,1.594,0,0,0,0,1,0,
40,4100.51,4138.97,4075.9,3855.9,4336.41,4151.79,4598.46,4562.56,4314.36,3945.13,4237.44,4620,4356.41,4605.64,1688,1711,1.602,0,0,0,0,1,0,
41,4096.41,4135.9,4076.41,3863.08,4333.33,4149.23,4603.08,4568.72,4315.9,3937.44,4243.08,4621.54,4355.38,4606.15,1689,1709,1.61,0,0,0,0,1,0,
42,4094.36,4132.82,4075.38,3851.28,4328.72,4154.36,4602.05,4563.59,4313.33,3929.74,4242.56,4618.97,4355.9,4603.59,1689,1710,1.617,0,0,0,0,1,0,
43,4094.87,4135.38,4075.38,3852.31,4328.21,4154.87,4597.44,4551.79,4306.15,3933.33,4229.23,4616.92,4352.82,4602.05,1690,1710,1.625,0,0,0,0,1,0,
44,4098.46,4142.05,4077.44,3861.03,4333.85,4144.62,4591.28,4551.79,4309.23,3941.03,4231.28,4619.49,4354.87,4605.13,1689,1710,1.633,0,0,0,0,1,0,
45,4101.54,4142.56,4077.44,3854.87,4337.44,4140.51,4591.28,4557.95,4314.36,3944.1,4243.59,4620.51,4360.51,4606.15,1691,1709,1.641,0,0,0,0,1,0,
46,4094.87,4136.92,4073.85,3848.21,4334.87,4143.08,4591.79,4553.85,4306.67,3936.41,4237.44,4616.41,4356.41,4602.56,1691,1709,1.649,0,0,0,0,1,0,
47,4092.31,4137.95,4073.33,3859.49,4334.36,4143.59,4591.28,4554.36,4305.64,3930.77,4230.77,4615.9,4353.85,4602.56,1691,1710,1.657,0,0,0,0,1,0,
48,4098.46,4142.05,4077.44,3864.62,4338.46,4143.08,4597.95,4567.69,4318.97,3939.49,4241.54,4621.03,4362.56,4607.18,1691,1710,1.664,0,0,0,0,1,0,
49,4095.9,4134.87,4077.95,3852.82,4334.87,4143.08,4598.97,4568.72,4316.41,3941.03,4244.1,4620,4360,4605.64,1692,1709,1.672,0,0,0,0,1,0,
50,4088.72,4128.72,4074.36,3847.69,4327.69,4141.03,4588.72,4555.9,4305.64,3931.79,4236.92,4614.36,4350.77,4603.08,1692,1709,1.68,0,0,0,0,1,0,
51,4095.38,4135.9,4074.87,3855.9,4330.26,4141.54,4588.72,4551.28,4311.79,3936.92,4243.08,4620,4359.49,4609.23,1691,1710,1.688,0,0,0,0,1,0,
52,4107.18,4142.56,4081.54,3865.64,4334.36,4144.1,4600.51,4559.49,4318.46,3950.77,4254.87,4625.13,4370.26,4613.85,1692,1709,1.696,0,0,0,0,1,0,
53,4102.05,4137.95,4083.08,3862.56,4328.21,4141.03,4599.49,4562.56,4310.77,3944.1,4248.21,4618.97,4362.05,4608.21,1690,1710,1.703,0,0,0,0,1,0,
54,4092.31,4126.67,4077.95,3850.77,4324.62,4139.49,4597.44,4560,4307.18,3930.77,4238.46,4614.87,4353.85,4604.62,1691,1710,1.711,0,0,0,0,1,0,
55,4092.82,4128.72,4076.41,3844.62,4333.33,4148.72,4601.54,4562.56,4311.79,3930.26,4236.41,4620,4355.38,4607.18,1689,1709,1.719,0,0,0,0,1,0,
56,4087.69,4133.33,4071.79,3845.13,4331.79,4150.26,4600.51,4563.08,4307.18,3929.23,4231.79,4616.41,4348.21,4601.03,1690,1711,1.727,0,0,0,0,1,0,
57,4079.49,4124.62,4064.1,3844.1,4325.64,4145.13,4599.49,4557.44,4300,3925.13,4227.18,4604.62,4342.05,4590.77,1689,1709,1.735,0,0,0,0,1,0,
58,4081.54,4123.08,4065.13,3846.15,4333.33,4147.18,4600.51,4553.85,4306.15,3925.13,4228.72,4605.13,4347.18,4590.77,1689,1710,1.742,0,0,0,0,1,0,
59,4089.23,4136.92,4072.31,3859.49,4339.49,4146.67,4600,4556.41,4310.77,3925.13,4233.33,4613.85,4349.74,4599.49,1689,1710,1.75,0,0,0,0,1,0,
60,4092.82,4143.59,4075.38,3864.1,4337.44,4142.56,4600,4554.87,4304.1,3926.67,4235.38,4614.87,4350.26,4603.08,1688,1710,1.758,0,0,0,0,1,0,
61,4090.26,4137.44,4073.33,3856.92,4340,4148.21,4600.51,4549.74,4303.59,3933.85,4238.46,4613.33,4356.92,4602.05,1689,1710,1.766,0,0,0,0,1,0,
62,4092.31,4138.46,4072.31,3858.97,4340,4154.87,4599.49,4552.31,4307.69,3941.03,4247.18,4614.87,4365.64,4606.67,1689,1711,1.775,0,0,0,0,1,0,
63,4104.62,4149.74,4078.97,3866.67,4338.97,4151.79,4600.51,4555.9,4308.21,3944.1,4251.28,4619.49,4373.85,4614.87,1689,1710,1.782,0,0,0,0,1,0,
64,4110.77,4154.36,4084.1,3859.49,4343.08,4146.67,4601.54,4555.38,4311.79,3945.64,4249.23,4623.08,4375.38,4616.41,1688,1711,1.789,0,0,0,0,1,0,
65,4103.08,4145.13,4080.51,3853.33,4340.51,4143.59,4597.95,4556.92,4315.38,3944.1,4247.18,4621.03,4368.21,4615.38,1690,1711,1.797,0,0,0,0,1,0,
66,4101.54,4136.41,4079.49,3860.51,4334.87,4145.64,4600,4566.67,4316.41,3948.72,4247.69,4617.44,4366.67,4616.92,1689,1710,1.805,0,0,0,0,1,0,
67,4101.54,4137.95,4079.49,3856.41,4335.9,4150.77,4604.1,4573.85,4317.95,3947.18,4249.74,4618.97,4369.74,4613.85,1690,1711,1.813,0,0,0,0,1,0,
68,4095.38,4138.46,4074.87,3851.28,4335.38,4147.18,4602.56,4568.72,4311.79,3931.79,4248.21,4619.49,4364.62,4605.64,1690,1709,1.821,0,0,0,0,1,0,
69,4096.41,4137.95,4075.9,3857.44,4336.92,4148.72,4601.03,4563.59,4306.15,3930.77,4244.1,4615.38,4362.05,4606.15,1690,1710,1.829,0,0,0,0,1,0,
70,4103.59,4138.97,4082.05,3857.44,4343.08,4158.97,4611.28,4568.21,4311.79,3943.08,4246.15,4617.95,4366.67,4614.87,1691,1708,1.836,0,0,0,0,1,0,
71,4104.1,4136.92,4083.08,3853.33,4343.59,4159.49,4618.46,4571.28,4315.38,3942.56,4251.28,4623.59,4366.67,4616.92,1691,1709,1.844,0,0,0,0,1,0,
72,4098.46,4132.82,4080,3855.9,4336.92,4149.74,4609.23,4562.05,4309.74,3940.51,4248.21,4622.05,4365.13,4609.74,1691,1708,1.852,0,0,0,0,1,0,
73,4092.82,4131.28,4076.41,3853.33,4328.72,4141.03,4600,4556.92,4307.18,3943.08,4238.46,4616.92,4363.59,4603.08,1691,1709,1.86,0,0,0,0,1,0,
74,4088.21,4131.79,4073.33,3845.64,4326.67,4135.9,4596.92,4562.05,4308.72,3939.49,4231.28,4614.87,4362.56,4600.51,1692,1708,1.869,0,0,0,0,1,0,
75,4090.26,4139.49,4074.36,3853.85,4335.38,4136.41,4594.36,4568.21,4311.79,3939.49,4232.82,4614.87,4364.62,4602.05,1691,1709,1.877,0,0,0,0,1,0,
76,4099.49,4150.26,4078.97,3865.13,4343.08,4144.62,4597.95,4566.67,4315.38,3943.59,4242.05,4618.46,4369.74,4608.21,1692,1709,1.883,0,0,0,0,1,0,
77,4105.64,4151.79,4087.18,3866.15,4342.05,4149.23,4600,4559.49,4308.72,3941.54,4246.67,4624.62,4373.85,4613.85,1691,1709,1.891,0,0,0,0,1,0,
78,4102.56,4148.72,4087.69,3863.08,4342.05,4143.59,4592.82,4554.36,4299.49,3943.08,4246.15,4623.59,4374.87,4614.87,1691,1710,1.899,0,0,0,0,1,0,
79,4096.41,4150.26,4078.97,3860,4343.59,4137.95,4588.21,4554.87,4300.51,3943.59,4249.74,4617.95,4374.36,4611.79,1692,1707,1.907,0,0,0,0,1,0,
80,4092.82,4146.67,4073.85,3851.28,4340.51,4140.51,4593.85,4555.38,4302.05,3934.36,4245.13,4615.9,4368.21,4603.59,1691,1708,1.916,0,0,0,0,1,0,
81,4091.28,4136.92,4074.87,3848.21,4336.41,4139.49,4597.95,4552.82,4300,3933.85,4231.28,4616.92,4361.03,4603.08,1692,1707,1.922,0,0,0,0,1,0,
82,4096.92,4137.44,4076.41,3861.54,4340,4136.41,4597.44,4553.33,4301.03,3937.95,4227.69,4620.51,4364.1,4611.79,1691,1709,1.93,0,0,0,0,1,0,
83,4100.51,4142.56,4075.38,3862.05,4345.13,4144.1,4595.9,4554.87,4303.08,3932.31,4235.9,4621.03,4371.28,4612.31,1692,1710,1.938,0,0,0,0,1,0,
84,4097.95,4139.49,4075.9,3849.23,4343.08,4148.21,4595.9,4554.87,4302.05,3930.77,4244.62,4620.51,4374.36,4607.69,1692,1710,1.946,0,0,0,0,1,0,
85,4096.41,4137.44,4077.95,3852.31,4338.97,4146.67,4601.54,4556.41,4300.51,3942.56,4242.56,4623.08,4370.77,4607.69,1692,1710,1.954,0,0,0,0,1,0,
86,4096.41,4134.87,4076.41,3854.36,4337.44,4149.23,4602.56,4561.03,4299.49,3945.64,4238.46,4624.62,4368.72,4609.23,1691,1710,1.961,0,0,0,0,1,0,
87,4096.92,4136.41,4074.87,3846.15,4336.41,4147.18,4598.97,4568.21,4298.46,3943.08,4242.56,4626.67,4375.9,4612.82,1691,1710,1.969,0,0,0,0,1,0,
88,4096.92,4143.59,4077.95,3852.82,4337.95,4142.05,4600.51,4566.15,4300,3945.64,4247.18,4626.67,4378.46,4612.31,1691,1710,1.977,0,0,0,0,1,0,
89,4090.77,4140.51,4076.41,3863.08,4343.59,4146.67,4602.05,4555.9,4297.95,3938.46,4232.31,4617.95,4360.51,4601.54,1691,1709,1.985,0,0,0,0,1,0,
90,4087.18,4134.87,4071.79,3861.54,4343.59,4147.18,4600.51,4551.79,4288.21,3922.05,4217.44,4613.33,4345.13,4596.41,1689,1710,1.993,0,0,0,0,1,0,
91,4092.31,4141.03,4074.36,3862.56,4343.59,4141.03,4598.97,4553.85,4285.64,3923.08,4227.18,4617.95,4355.38,4604.1,1689,1710,2.001,0,0,0,0,1,0,
92,4093.85,4144.1,4075.38,3861.03,4348.72,4143.59,4600.51,4554.87,4296.92,3935.38,4235.9,4617.44,4368.21,4605.13,1689,1711,2.008,0,0,0,0,1,0,
93,4090.77,4137.44,4070.77,3852.31,4349.23,4146.67,4601.54,4554.36,4302.05,3934.87,4224.1,4614.87,4363.59,4601.54,1689,1710,2.016,0,0,0,0,1,0,
94,4087.69,4135.38,4069.74,3846.15,4341.03,4137.95,4600,4552.31,4291.79,3924.62,4216.92,4614.87,4355.38,4600.51,1688,1710,2.024,0,0,0,0,1,0,
95,4093.33,4136.92,4072.31,3849.74,4337.95,4136.41,4600.51,4551.79,4292.82,3922.56,4231.28,4617.44,4361.54,4608.21,1689,1710,2.032,0,0,0,0,1,0,
96,4105.13,4138.46,4078.46,3855.9,4345.64,4145.64,4602.56,4556.92,4300.51,3934.87,4240,4625.13,4370.77,4618.46,1688,1709,2.04,0,0,0,0,1,0,
97,4106.15,4137.95,4083.08,3853.85,4348.21,4147.69,4601.54,4557.44,4297.44,3941.54,4233.33,4628.21,4366.67,4615.9,1689,1711,2.048,0,0,0,0,1,0,
98,4100.51,4135.9,4080,3847.18,4344.62,4146.15,4598.97,4553.85,4294.36,3931.28,4230.26,4623.08,4359.49,4611.79,1690,1709,2.055,0,0,0,0,1,0,
99,4102.56,4135.38,4077.95,3851.79,4341.54,4148.21,4601.54,4555.9,4296.41,3927.18,4232.31,4622.05,4362.05,4615.38,1691,1710,2.063,0,0,0,0,1,0,
100,4104.62,4137.95,4078.46,3860.51,4342.05,4147.18,4602.56,4557.95,4296.92,3930.26,4233.33,4622.05,4365.64,4614.36,1692,1709,2.071,0,0,0,0,1,0,
101,4100.51,4140.51,4076.41,3864.1,4346.15,4140,4595.9,4552.31,4292.82,3921.03,4232.82,4619.49,4363.59,4609.74,1692,1709,2.079,0,0,0,0,1,0,
102,4100.51,4137.44,4075.38,3863.08,4345.64,4134.87,4592.82,4548.21,4290.77,3912.31,4228.72,4617.95,4362.05,4611.28,1694,1708,2.087,0,0,0,0,1,0,
103,4104.1,4136.92,4078.46,3854.36,4344.1,4137.95,4596.92,4550.77,4293.85,3922.56,4229.23,4618.97,4365.13,4615.38,1694,1708,2.094,0,0,0,0,1,0,
104,4108.21,4150.26,4082.05,3856.41,4348.72,4140,4601.03,4554.87,4298.46,3938.97,4237.44,4622.56,4370.26,4616.92,1694,1708,2.102,0,0,0,0,1,0,
105,4105.13,4153.33,4081.03,3863.08,4350.77,4138.97,4598.97,4552.82,4296.41,3940,4238.97,4622.56,4370.26,4614.87,1693,1708,2.111,0,0,0,0,1,0,
106,4098.97,4139.49,4077.95,3853.85,4344.62,4137.95,4596.41,4549.23,4294.36,3931.79,4231.28,4619.49,4369.74,4610.77,1694,1708,2.118,0,0,0,0,1,0,
107,4102.05,4140.51,4080,3850.77,4345.64,4138.97,4598.97,4553.85,4302.56,3930.77,4230.26,4623.59,4371.79,4613.85,1694,1709,2.126,0,0,0,0,1,0,
108,4104.62,4145.64,4080.51,3858.97,4347.18,4139.49,4601.54,4554.36,4305.13,3933.33,4234.36,4624.62,4368.21,4617.44,1692,1710,2.133,0,0,0,0,1,0,
109,4101.54,4140.51,4077.44,3860,4342.56,4138.46,4600.51,4547.18,4301.03,3934.36,4231.79,4620,4367.18,4615.38,1693,1709,2.141,0,0,0,0,1,0,
110,4104.1,4142.56,4081.54,3857.95,4345.13,4140.51,4600.51,4549.23,4300.51,3940,4231.28,4626.67,4378.46,4618.46,1691,1711,2.149,0,0,0,0,1,0,
111,4111.28,4147.18,4089.23,3860,4347.69,4140.51,4602.05,4556.41,4302.56,3945.64,4236.41,4635.38,4384.62,4623.08,1692,1709,2.157,0,0,0,0,1,0,
112,4108.21,4138.46,4084.62,3853.33,4341.03,4140.51,4602.05,4557.95,4304.1,3936.92,4236.92,4627.69,4373.33,4617.95,1690,1710,2.165,0,0,0,0,1,0,
113,4100,4131.28,4073.33,3847.69,4338.46,4141.03,4601.03,4554.87,4302.56,3928.72,4232.82,4621.54,4367.18,4612.82,1691,1710,2.173,0,0,0,0,1,0,
114,4099.49,4136.92,4073.33,3849.74,4343.59,4138.46,4602.56,4553.85,4298.97,3929.74,4236.41,4622.05,4371.79,4615.9,1690,1710,2.18,0,0,0,0,1,0,
115,4097.44,4135.9,4073.85,3848.72,4345.13,4134.87,4598.46,4550.77,4298.46,3928.72,4234.36,4616.41,4368.72,4611.79,1691,1710,2.188,0,0,0,0,1,0,
116,4090.26,4129.23,4069.23,3847.69,4343.08,4135.38,4592.82,4548.72,4298.97,3927.69,4222.05,4614.36,4362.05,4602.56,1690,1711,2.196,0,0,0,0,1,0,
117,4092.31,4132.82,4068.21,3846.67,4342.05,4137.44,4595.9,4547.69,4294.36,3930.77,4223.59,4616.41,4362.05,4606.15,1691,1710,2.204,0,0,0,0,1,0,
118,4102.05,4139.49,4074.87,3850.26,4339.49,4137.44,4600.51,4543.08,4293.85,3934.36,4231.28,4616.41,4365.13,4615.9,1691,1709,2.212,0,0,0,0,1,0,
119,4102.56,4135.38,4077.44,3854.36,4338.46,4137.44,4601.03,4542.05,4297.44,3931.28,4234.36,4618.97,4369.23,4614.87,1691,1710,2.22,0,0,0,0,1,0,
120,4093.33,4129.23,4071.79,3850.77,4338.97,4137.95,4597.95,4547.69,4296.92,3925.64,4233.85,4619.49,4369.23,4606.15,1692,1709,2.227,0,0,0,0,1,0,
121,4085.64,4127.18,4062.56,3843.59,4336.41,4138.46,4596.41,4551.79,4295.9,3924.62,4224.1,4609.74,4361.54,4600.51,1691,1711,2.235,0,0,0,0,1,0,
122,4084.62,4124.62,4058.97,3841.54,4332.82,4138.46,4597.95,4551.79,4297.95,3930.77,4219.49,4607.18,4355.38,4599.49,1693,1710,2.243,0,0,0,0,1,0,
123,4088.72,4131.28,4067.69,3845.64,4338.46,4138.97,4600,4552.82,4305.13,3940.51,4231.28,4620,4364.62,4603.59,1692,1710,2.251,0,0,0,0,1,0,
124,4094.36,4140.51,4076.41,3849.23,4345.64,4140.51,4601.54,4557.95,4308.21,3944.1,4237.44,4626.15,4376.92,4613.85,1692,1711,2.259,0,0,0,0,1,0,
125,4101.03,4139.49,4076.92,3851.28,4344.1,4138.46,4600.51,4555.38,4301.54,3936.41,4236.92,4622.56,4378.97,4618.46,1691,1710,2.266,0,0,0,0,1,0,
126,4103.59,4138.97,4077.95,3852.82,4338.97,4131.28,4592.82,4543.59,4292.82,3926.15,4238.46,4622.05,4375.9,4612.82,1691,1711,2.274,0,0,0,0,1,0,
127,4096.41,4141.03,4076.92,3855.9,4336.41,4125.13,4584.62,4537.95,4289.74,3925.64,4225.13,4620.51,4370.77,4608.21,1691,1709,2.282,0,0,0,0,1,0,
128,4090.26,4134.36,4073.85,3854.36,4338.97,4123.59,4587.69,4548.21,4290.77,3927.69,4216.92,4614.36,4367.18,4608.21,1690,1710,2.29,0,0,0,0,1,0,
0,4091.28,4128.21,4071.79,3848.21,4342.56,4126.15,4594.36,4555.38,4295.9,3927.18,4229.74,4615.38,4370.77,4604.62,1690,1710,2.298,0,0,0,0,1,0,
1,4091.79,4130.26,4073.33,3847.69,4340.51,4131.79,4597.44,4553.33,4301.54,3935.38,4234.36,4619.49,4375.38,4603.08,1690,1711,2.306,0,0,0,0,1,0,
2,4088.72,4136.41,4074.36,3851.79,4338.97,4136.41,4602.05,4553.33,4299.49,3942.56,4229.74,4617.44,4375.38,4605.64,1691,1710,2.313,0,0,0,0,1,0,
3,4089.74,4138.97,4074.87,3852.31,4343.59,4136.92,4601.54,4553.85,4298.97,3936.41,4231.28,4617.95,4376.92,4609.74,1690,1712,2.321,0,0,0,0,1,0,
4,4100,4135.38,4080,3852.82,4347.18,4134.87,4595.38,4552.31,4301.54,3935.9,4232.82,4626.67,4380,4613.33,1691,1711,2.329,0,0,0,0,1,0,
5,4109.74,4140,4089.74,3860,4347.18,4133.33,4595.38,4553.33,4300.51,3943.08,4235.9,4633.85,4384.62,4620,1691,1710,2.337,0,0,0,0,1,0,
6,4108.72,4151.79,4092.82,3864.1,4347.69,4135.38,4601.03,4553.33,4302.56,3942.05,4242.05,4632.82,4392.31,4623.59,1692,1712,2.345,0,0,0,0,1,0,
7,4106.15,4148.72,4087.69,3862.05,4348.72,4138.97,4602.56,4553.33,4308.21,3940,4238.46,4632.31,4389.23,4622.56,1692,1710,2.352,0,0,0,0,1,0,
8,4108.72,4135.9,4087.18,3862.05,4345.64,4138.97,4600,4553.85,4306.15,3943.08,4234.87,4634.87,4381.03,4619.49,1692,1711,2.361,0,0,0,0,1,0,
9,4106.15,4131.28,4085.64,3860.51,4340,4132.31,4598.46,4552.82,4298.97,3937.95,4233.85,4632.31,4380,4616.92,1693,1709,2.368,0,0,0,0,1,0,
10,4098.46,4131.79,4080.51,3855.38,4341.03,4129.74,4602.56,4553.33,4303.08,3933.85,4230.77,4625.64,4378.97,4615.9,1693,1710,2.376,0,0,0,0,1,0,
11,4100,4133.33,4083.59,3853.33,4346.15,4132.31,4602.56,4558.46,4311.28,3944.62,4234.36,4626.15,4377.44,4619.49,1693,1709,2.384,0,0,0,0,1,0,
12,4107.18,4139.49,4086.67,3853.85,4345.64,4129.23,4592.82,4556.92,4311.79,3951.28,4241.03,4633.85,4385.13,4624.62,1692,1710,2.392,0,0,0,0,1,0,
13,4107.18,4138.97,4083.59,3855.9,4346.15,4124.62,4590.26,4552.31,4309.74,3944.62,4236.92,4634.87,4385.64,4621.03,1692,1710,2.399,0,0,0,0,1,0,
14,4102.05,4135.9,4085.64,3857.44,4347.69,4130.77,4599.49,4557.44,4311.28,3944.62,4229.23,4629.23,4376.92,4617.95,1691,1711,2.407,0,0,0,0,1,0,
15,4106.15,4141.03,4090.77,3857.44,4347.18,4138.97,4604.62,4564.1,4316.41,3952.82,4231.28,4632.82,4380,4624.62,1690,1710,2.415,0,0,0,0,1,0,
16,4112.31,4145.13,4087.69,3862.05,4349.23,4136.92,4602.05,4560,4313.33,3951.28,4234.36,4635.9,4385.13,4625.64,1691,1710,2.423,0,0,0,0,1,0,
17,4105.64,4137.44,4078.46,3865.13,4348.72,4133.85,4601.03,4549.23,4298.97,3938.97,4228.21,4624.62,4374.36,4615.38,1690,1710,2.431,0,0,0,0,1,0,
18,4091.28,4130.77,4069.23,3851.79,4344.62,4135.38,4601.54,4544.1,4291.79,3931.28,4217.44,4613.33,4360.51,4605.13,1690,1711,2.438,0,0,0,0,1,0,
19,4085.64,4131.79,4065.64,3842.05,4343.08,4132.31,4601.03,4548.21,4298.97,3934.36,4211.79,4614.87,4361.54,4602.56,1690,1710,2.446,0,0,0,0,1,0,
20,4089.74,4129.23,4070.26,3851.79,4345.64,4125.64,4601.54,4556.41,4309.23,3941.03,4216.92,4620,4369.23,4607.69,1690,1711,2.454,0,0,0,0,1,0,
21,4091.28,4128.21,4072.31,3851.28,4346.67,4126.67,4603.08,4558.46,4312.31,3941.54,4226.67,4619.49,4368.21,4615.38,1691,1710,2.462,0,0,0,0,1,0,
22,4088.72,4129.23,4067.18,3844.1,4345.13,4134.36,4603.08,4553.85,4303.08,3936.92,4228.72,4617.44,4363.08,4612.82,1689,1711,2.47,0,0,0,0,1,0,
23,4089.23,4127.18,4066.15,3847.18,4344.62,4136.92,4601.03,4552.31,4294.36,3940.51,4226.15,4616.92,4363.08,4607.18,1692,1709,2.478,0,0,0,0,1,0,
24,4092.82,4130.77,4073.33,3848.21,4347.18,4135.38,4601.54,4553.85,4303.08,3942.56,4228.21,4622.56,4367.69,4612.82,1691,1709,2.485,0,0,0,0,1,0,
25,4092.82,4138.46,4075.9,3851.28,4347.18,4136.41,4603.08,4555.38,4308.21,3942.05,4232.82,4628.72,4368.72,4619.49,1692,1710,2.493,0,0,0,0,1,0,
26,4096.92,4140,4076.92,3861.54,4348.21,4137.44,4600.51,4553.85,4298.46,3949.74,4230.77,4629.74,4367.18,4618.46,1692,1709,2.501,0,0,0,0,1,0,
27,4106.67,4141.03,4083.08,3865.13,4354.87,4133.85,4598.97,4549.74,4297.44,3954.36,4229.23,4630.26,4374.36,4618.97,1691,1710,2.509,0,0,0,0,1,0,
28,4108.21,4143.59,4087.18,3862.05,4355.9,4129.23,4600,4549.23,4302.05,3952.31,4235.38,4632.82,4381.54,4624.1,1691,1710,2.517,0,0,0,0,1,0,
29,4104.62,4140.51,4083.59,3862.05,4350.26,4130.77,4600.51,4551.28,4296.41,3950.77,4234.36,4634.36,4375.38,4622.05,1691,1711,2.524,0,0,0,0,1,0,
30,4101.03,4140,4076.92,3861.54,4352.31,4135.9,4600.51,4552.31,4296.92,3950.26,4227.69,4631.79,4368.21,4617.95,1691,1710,2.532,0,0,0,0,1,0,
31,4097.95,4140,4078.46,3861.54,4356.92,4136.41,4603.08,4554.36,4309.23,3953.85,4229.23,4629.74,4369.74,4617.95,1689,1712,2.54,0,0,0,0,1,0,
32,4094.87,4138.97,4081.03,3861.03,4355.9,4134.36,4604.1,4559.49,4309.74,3953.85,4230.26,4627.18,4372.31,4616.92,1690,1712,2.548,0,0,0,0,1,0,
33,4091.79,4138.46,4075.38,3852.31,4352.82,4136.41,4602.05,4557.95,4300.51,3944.62,4220.51,4620.51,4369.23,4615.38,1688,1712,2.556,0,0,0,0,1,0,
34,4089.74,4136.92,4069.74,3853.33,4351.28,4135.9,4603.59,4554.87,4301.03,3941.54,4217.44,4618.97,4363.59,4613.85,1690,1711,2.564,0,0,0,0,1,0,
35,4089.23,4133.33,4072.82,3857.44,4351.28,4134.36,4605.64,4566.67,4309.23,3947.69,4223.59,4623.59,4365.64,4613.85,1689,1710,2.571,0,0,0,0,1,0,
36,4090.26,4136.92,4077.95,3854.87,4352.82,4135.38,4611.79,4573.85,4311.28,3946.15,4228.21,4626.15,4376.92,4616.92,1689,1711,2.579,0,0,0,0,1,0,
37,4097.44,4146.15,4077.44,3857.44,4353.85,4136.92,4616.92,4561.54,4307.18,3941.03,4227.18,4626.15,4381.03,4617.95,1690,1709,2.588,0,0,0,0,1,0,
38,4104.62,4146.67,4077.44,3857.95,4355.38,4136.41,4608.21,4551.28,4305.64,3945.64,4221.03,4626.15,4380,4617.95,1689,1710,2.595,0,0,0,0,1,0,
39,4097.95,4137.95,4075.9,3852.82,4354.87,4135.38,4599.49,4553.85,4307.18,3949.23,4222.05,4624.1,4383.08,4617.44,1691,1710,2.603,0,0,0,0,1,0,
40,4088.72,4134.87,4070.77,3856.92,4351.79,4134.87,4601.03,4555.9,4306.67,3949.74,4223.59,4618.97,4382.05,4614.36,1689,1711,2.611,0,0,0,0,1,0,
41,4091.28,4140.51,4069.74,3864.1,4353.33,4133.85,4602.56,4554.36,4306.67,3955.38,4218.46,4617.44,4379.49,4613.33,1690,1710,2.618,0,0,0,0,1,0,
42,4092.82,4141.03,4071.79,3858.46,4354.87,4135.9,4604.62,4555.9,4307.18,3961.03,4216.92,4625.13,4383.08,4616.41,1691,1711,2.626,0,0,0,0,1,0,
43,4089.74,4136.41,4073.85,3857.95,4354.36,4139.49,4610.77,4556.92,4303.08,3957.95,4220.51,4628.21,4384.62,4618.46,1690,1711,2.634,0,0,0,0,1,0,
44,4089.23,4138.46,4072.31,3860,4353.33,4138.97,4610.26,4553.33,4299.49,3948.72,4216.41,4620,4383.59,4615.9,1690,1711,2.642,0,0,0,0,1,0,
45,4092.82,4148.21,4072.82,3859.49,4354.87,4134.36,4605.13,4550.77,4308.21,3944.62,4215.9,4620,4386.15,4615.38,1691,1712,2.65,0,0,0,0,1,0,
46,4096.41,4155.38,4074.87,3863.59,4357.44,4137.95,4605.64,4553.85,4308.72,3948.72,4220,4627.69,4388.21,4618.46,1691,1712,2.657,0,0,0,0,1,0,
47,4093.33,4151.79,4072.82,3863.08,4356.92,4137.44,4602.56,4550.77,4293.33,3945.13,4215.9,4621.03,4382.05,4616.41,1691,1712,2.665,0,0,0,0,1,0,
48,4088.21,4143.08,4073.85,3860.51,4355.9,4125.13,4598.97,4538.97,4289.74,3929.74,4211.79,4612.31,4374.36,4612.82,1691,1710,2.673,0,0,0,0,1,0,
49,4094.36,4141.54,4077.95,3863.59,4355.9,4126.67,4605.13,4543.59,4300.51,3930.26,4214.87,4619.49,4381.54,4616.41,1691,1712,2.681,0,0,0,0,1,0,
50,4100,4145.13,4079.49,3862.05,4355.38,4135.38,4608.72,4555.9,4304.1,3947.18,4217.95,4631.79,4388.21,4619.49,1693,1710,2.689,0,0,0,0,1,0,
51,4090.26,4144.1,4075.9,3857.44,4352.31,4132.31,4607.18,4554.36,4302.56,3949.74,4216.41,4628.21,4380.51,4615.38,1691,1710,2.697,0,0,0,0,1,0,
52,4083.59,4137.95,4073.85,3866.15,4352.31,4131.28,4609.23,4555.9,4309.23,3946.67,4215.38,4620.51,4378.97,4611.79,1692,1711,2.704,0,0,0,0,1,0,
53,4089.74,4135.9,4075.38,3864.1,4354.87,4134.87,4610.77,4563.59,4316.41,3957.95,4218.97,4623.59,4387.69,4614.36,1690,1711,2.712,0,0,0,0,1,0,
54,4091.28,4139.49,4075.38,3849.74,4351.28,4129.74,4608.72,4561.54,4312.31,3963.08,4218.46,4628.21,4388.72,4616.92,1692,1712,2.72,0,0,0,0,1,0,
55,4088.21,4141.03,4074.87,3853.85,4347.18,4125.64,4607.69,4553.33,4307.69,3960,4216.41,4627.69,4391.28,4616.41,1690,1712,2.728,0,0,0,0,1,0,
56,4090.77,4138.97,4077.44,3865.13,4347.69,4126.15,4605.13,4547.69,4308.21,3960.51,4218.97,4629.74,4396.41,4615.9,1690,1713,2.736,0,0,0,0,1,0,
57,4095.9,4138.97,4083.08,3862.56,4349.74,4126.67,4601.54,4545.64,4308.21,3947.18,4220,4631.28,4390.26,4619.49,1689,1712,2.743,0,0,0,0,1,0,
58,4097.44,4141.03,4084.62,3858.97,4354.36,4134.87,4606.15,4550.77,4313.33,3943.08,4215.9,4632.31,4386.15,4624.1,1689,1713,2.751,0,0,0,0,1,0,
59,4095.38,4144.62,4078.46,3864.1,4361.54,4140.51,4614.87,4552.82,4315.9,3958.46,4217.44,4632.82,4388.72,4621.54,1689,1712,2.759,0,0,0,0,1,0,
60,4090.77,4146.15,4075.38,3865.13,4362.56,4136.92,4615.38,4548.72,4309.23,3957.44,4216.41,4628.21,4388.72,4616.41,1688,1713,2.767,0,0,0,0,1,0,
61,4090.77,4146.67,4080.51,3863.08,4359.49,4136.41,4612.82,4550.26,4308.21,3948.72,4214.87,4627.69,4395.38,4617.44,1690,1713,2.775,0,0,0,0,1,0,
62,4091.79,4149.74,4078.97,3860.51,4360,4138.97,4614.36,4555.38,4317.44,3960,4222.05,4631.79,4399.49,4620,1688,1712,2.783,0,0,0,0,1,0,
63,4091.28,4146.67,4071.79,3860,4360,4137.95,4616.92,4554.87,4320,3971.79,4225.64,4628.72,4393.85,4617.44,1689,1711,2.79,0,0,0,0,1,0,
64,4091.79,4141.54,4077.95,3865.64,4357.44,4136.41,4609.23,4555.38,4315.38,3969.23,4219.49,4628.21,4397.44,4616.92,1689,1710,2.798,0,0,0,0,1,0,
65,4093.85,4146.15,4085.13,3866.15,4360,4136.41,4600.51,4553.85,4311.28,3966.15,4214.87,4632.31,4400,4619.49,1690,1711,2.806,0,0,0,0,1,0,
66,4090.26,4154.36,4077.44,3861.54,4363.08,4131.28,4601.03,4544.62,4304.1,3956.41,4213.85,4630.26,4389.74,4616.41,1690,1711,2.814,0,0,0,0,1,0,
67,4092.31,4152.31,4074.87,3861.54,4359.49,4127.69,4605.64,4541.03,4301.54,3948.72,4213.33,4628.72,4390.26,4617.95,1691,1711,2.822,0,0,0,0,1,0,
68,4098.97,4149.74,4083.08,3864.62,4357.44,4128.21,4608.21,4549.74,4307.69,3957.44,4217.44,4632.31,4399.49,4626.15,1691,1710,2.829,0,0,0,0,1,0,
69,4097.44,4154.36,4082.05,3865.64,4359.49,4130.26,4608.72,4557.95,4312.82,3960.51,4220,4633.85,4395.38,4624.1,1692,1711,2.837,0,0,0,0,1,0,
70,4092.82,4153.33,4075.38,3865.13,4359.49,4131.79,4609.23,4552.31,4308.72,3953.33,4215.9,4630.26,4391.28,4617.44,1692,1712,2.845,0,0,0,0,1,0,
71,4085.64,4143.59,4071.28,3858.46,4354.36,4128.72,4608.21,4544.1,4304.62,3954.36,4213.85,4621.03,4388.21,4613.85,1692,1713,2.853,0,0,0,0,1,0,
72,4081.54,4141.03,4067.69,3854.36,4350.77,4123.08,4604.1,4548.72,4309.23,3960,4215.9,4616.41,4384.62,4611.28,1691,1713,2.861,0,0,0,0,1,0,
73,4084.62,4147.69,4070.26,3861.03,4353.85,4121.03,4601.03,4554.36,4310.77,3956.41,4216.41,4622.56,4388.21,4611.79,1692,1713,2.869,0,0,0,0,1,0,
74,4086.67,4148.21,4075.9,3864.62,4356.41,4123.59,4602.56,4553.33,4307.69,3955.9,4212.31,4626.67,4389.23,4615.38,1691,1713,2.876,0,0,0,0,1,0,
75,4086.15,4147.69,4076.41,3860.51,4355.9,4126.15,4604.1,4552.82,4308.21,3956.41,4214.36,4627.18,4386.67,4615.38,1691,1712,2.884,0,0,0,0,1,0,
76,4089.23,4152.31,4079.49,3863.59,4354.36,4124.1,4600.51,4546.15,4304.62,3944.62,4218.46,4629.74,4387.69,4615.38,1690,1712,2.892,0,0,0,0,1,0,
77,4093.33,4148.21,4085.13,3869.23,4353.33,4123.59,4601.54,4536.92,4295.38,3935.9,4209.23,4626.15,4387.69,4618.46,1690,1713,2.9,0,0,0,0,1,0,
78,4087.18,4137.44,4084.62,3860,4347.69,4124.62,4607.18,4543.59,4292.82,3943.59,4198.97,4621.03,4380,4616.92,1691,1712,2.908,0,0,0,0,1,0,
79,4083.59,4136.92,4081.03,3852.31,4346.67,4129.74,4608.21,4548.21,4297.44,3947.18,4208.21,4626.15,4375.9,4614.87,1689,1713,2.915,0,0,0,0,1,0,
80,4088.72,4146.15,4085.13,3860,4358.46,4135.38,4607.69,4538.46,4300.51,3944.1,4217.95,4632.31,4383.08,4620.51,1691,1713,2.923,0,0,0,0,1,0,
81,4093.33,4153.85,4089.23,3869.23,4367.18,4132.82,4607.69,4535.9,4302.56,3946.15,4216.41,4631.28,4392.82,4625.64,1690,1713,2.931,0,0,0,0,1,0,
82,4092.82,4154.36,4082.56,3867.69,4362.05,4126.67,4604.62,4541.54,4305.13,3948.21,4216.41,4629.74,4394.87,4622.05,1691,1713,2.939,0,0,0,0,1,0,
83,4089.23,4148.72,4073.85,3862.05,4358.97,4129.23,4602.56,4546.67,4308.21,3950.26,4220,4627.18,4390.77,4615.9,1691,1713,2.947,0,0,0,0,1,0,
84,4086.67,4151.28,4073.33,3862.05,4362.05,4134.87,4608.21,4553.33,4312.82,3958.46,4218.97,4622.56,4391.28,4616.92,1692,1713,2.955,0,0,0,0,1,0,
85,4085.13,4155.38,4077.44,3866.67,4361.03,4134.87,4613.85,4554.87,4313.33,3960,4217.44,4621.54,4394.36,4618.46,1692,1712,2.962,0,0,0,0,1,0,
86,4085.13,4146.67,4074.36,3864.1,4361.03,4134.87,4612.82,4550.26,4309.74,3954.87,4216.92,4618.46,4391.79,4613.85,1693,1712,2.97,0,0,0,0,1,0,
87,4084.62,4142.05,4068.72,3858.46,4368.72,4139.49,4613.33,4552.82,4314.36,3958.46,4216.41,4617.95,4389.23,4612.82,1693,1711,2.978,0,0,0,0,1,0,
88,4085.13,4148.72,4069.74,3861.03,4368.72,4137.95,4614.87,4555.9,4320,3960,4215.9,4623.59,4391.28,4617.44,1693,1713,2.986,0,0,0,0,1,0,
89,4082.56,4146.15,4072.82,3864.1,4360,4130.77,4609.74,4547.18,4308.72,3946.15,4217.44,4624.1,4389.74,4617.44,1694,1710,2.994,0,0,0,0,1,0,
90,4077.44,4140.51,4067.69,3860.51,4356.41,4128.72,4602.05,4534.87,4296.41,3936.92,4217.44,4617.95,4385.13,4611.79,1693,1712,3.002,0,0,0,0,1,0,
91,4077.95,4145.13,4064.1,3859.49,4358.46,4129.74,4601.03,4532.82,4295.9,3941.54,4215.9,4614.87,4387.18,4612.82,1694,1711,3.009,0,0,0,0,1,0,
92,4083.08,4148.21,4071.28,3864.62,4361.03,4131.28,4602.56,4537.95,4299.49,3949.23,4216.92,4617.95,4392.31,4618.46,1692,1711,3.017,0,0,0,0,1,0,
93,4081.54,4145.13,4074.87,3864.1,4360,4130.26,4601.03,4538.97,4304.1,3952.82,4218.46,4621.54,4388.21,4617.44,1693,1713,3.025,0,0,0,0,1,0,
94,4079.49,4150.77,4074.36,3863.08,4355.38,4126.67,4601.54,4537.44,4306.15,3953.33,4214.36,4618.97,4383.08,4614.87,1693,1712,3.033,0,0,0,0,1,0,
95,4086.67,4157.44,4076.92,3865.13,4353.85,4125.64,4603.08,4542.05,4307.18,3954.36,4220,4619.49,4388.72,4617.44,1693,1714,3.041,0,0,0,0,1,0,
96,4089.23,4148.72,4076.92,3864.1,4356.41,4129.23,4604.1,4549.23,4312.82,3959.49,4228.21,4626.67,4393.33,4617.44,1693,1715,3.048,0,0,0,0,1,0,
97,4084.62,4142.56,4073.33,3860,4353.85,4132.31,4604.62,4554.87,4317.95,3961.03,4223.59,4629.74,4391.28,4615.9,1693,1716,3.056,0,0,0,0,1,0,
98,4085.13,4150.77,4074.87,3859.49,4350.26,4129.23,4602.05,4552.82,4311.79,3957.95,4222.56,4626.15,4390.26,4622.56,1692,1716,3.064,0,0,0,0,1,0,
99,4092.31,4152.31,4083.08,3864.1,4350.26,4126.15,4604.1,4545.13,4309.23,3955.38,4225.13,4629.74,4391.28,4625.64,1692,1717,3.072,0,0,0,0,1,0,
100,4094.36,4143.59,4082.56,3864.62,4347.18,4124.62,4605.13,4541.03,4311.79,3949.23,4217.95,4633.85,4388.21,4624.62,1693,1715,3.08,0,0,0,0,1,0,
101,4089.23,4144.1,4075.38,3863.08,4342.56,4124.1,4602.05,4542.05,4304.62,3938.97,4219.49,4629.74,4384.62,4626.15,1691,1716,3.088,0,0,0,0,1,0,
102,4086.15,4147.18,4073.33,3862.05,4344.1,4124.62,4601.03,4541.54,4297.95,3939.49,4232.31,4628.21,4385.64,4623.59,1693,1714,3.095,0,0,0,0,1,0,
103,4089.74,4148.21,4076.92,3863.08,4347.18,4123.59,4602.56,4537.95,4302.56,3951.79,4235.38,4630.26,4390.26,4620,1693,1714,3.103,0,0,0,0,1,0,
104,4091.28,4153.33,4075.9,3863.59,4345.64,4122.56,4600.51,4538.97,4309.23,3957.95,4229.23,4630.77,4393.85,4623.08,1693,1713,3.111,0,0,0,0,1,0,
105,4089.74,4151.28,4076.41,3863.08,4342.05,4123.59,4602.05,4542.56,4310.26,3958.46,4229.74,4631.28,4394.36,4627.69,1693,1712,3.119,0,0,0,0,1,0,
106,4098.97,4149.23,4083.59,3866.67,4344.1,4128.72,4605.64,4540.51,4310.26,3965.13,4233.33,4632.82,4398.46,4631.79,1693,1713,3.127,0,0,0,0,1,0,
107,4106.67,4157.44,4087.18,3869.74,4350.77,4130.77,4604.1,4537.44,4306.67,3968.21,4235.38,4632.31,4403.08,4630.77,1693,1713,3.134,0,0,0,0,1,0,
108,4095.38,4156.41,4083.08,3866.67,4352.82,4128.21,4604.62,4537.95,4302.56,3960,4232.31,4628.72,4396.41,4623.08,1692,1713,3.142,0,0,0,0,1,0,
109,4085.64,4148.72,4078.97,3862.56,4346.67,4125.64,4604.62,4539.49,4306.15,3953.33,4230.26,4628.21,4392.82,4620,1692,1713,3.15,0,0,0,0,1,0,
110,4091.28,4152.82,4082.05,3865.64,4343.59,4124.1,4602.05,4540.51,4309.74,3959.49,4233.33,4633.33,4400.51,4626.67,1690,1714,3.158,0,0,0,0,1,0,
111,4093.33,4154.87,4084.62,3867.18,4346.67,4128.21,4603.59,4540,4308.72,3957.95,4232.82,4632.82,4399.49,4626.67,1690,1714,3.166,0,0,0,0,1,0,
112,4087.18,4152.82,4078.97,3863.08,4350.77,4137.44,4609.74,4539.49,4311.79,3947.18,4229.74,4623.08,4393.33,4621.54,1689,1715,3.174,0,0,0,0,1,0,
113,4087.69,4160,4078.46,3868.72,4351.79,4141.03,4610.26,4542.05,4315.38,3948.72,4233.85,4621.54,4396.41,4622.56,1690,1714,3.181,0,0,0,0,1,0,
114,4091.79,4162.56,4082.56,3877.44,4349.74,4133.85,4603.59,4538.97,4310.77,3959.49,4232.82,4625.13,4398.97,4625.13,1688,1714,3.189,0,0,0,0,1,0,
115,4092.82,4154.87,4080.51,3871.79,4346.67,4126.15,4600.51,4528.21,4305.13,3963.08,4227.69,4620,4398.97,4623.59,1689,1713,3.197,0,0,0,0,1,0,
116,4090.26,4152.31,4075.9,3862.05,4346.15,4126.67,4601.03,4527.69,4304.1,3958.97,4235.38,4617.44,4405.13,4624.1,1689,1711,3.205,0,0,0,0,1,0,
117,4088.72,4155.38,4076.41,3861.54,4347.69,4130.26,4601.54,4535.9,4306.15,3957.44,4247.69,4625.64,4409.23,4630.26,1689,1713,3.213,0,0,0,0,1,0,
118,4091.79,4153.85,4080,3864.1,4350.26,4132.31,4605.13,4537.44,4310.26,3966.67,4250.77,4631.79,4411.28,4632.82,1690,1711,3.221,0,0,0,0,1,0,
119,4095.38,4154.87,4083.08,3864.1,4350.77,4133.85,4611.28,4536.41,4314.36,3971.79,4247.69,4631.79,4415.38,4630.26,1689,1711,3.228,0,0,0,0,1,0,
120,4093.33,4156.92,4082.05,3865.13,4345.64,4132.31,4609.74,4538.46,4312.31,3963.59,4250.26,4630.26,4410.77,4628.21,1690,1711,3.236,0,0,0,0,1,0,
121,4090.77,4153.33,4081.03,3865.64,4343.59,4124.62,4602.05,4536.92,4308.21,3960,4256.41,4629.23,4402.05,4628.21,1690,1712,3.244,0,0,0,0,1,0,
122,4092.82,4152.31,4081.54,3865.13,4344.62,4120.51,4601.54,4535.9,4308.21,3963.59,4254.36,4627.69,4397.95,4629.74,1692,1711,3.252,0,0,0,0,1,0,
123,4091.79,4152.31,4080.51,3863.08,4345.64,4127.69,4602.56,4537.44,4308.72,3957.95,4250.77,4624.62,4400.51,4631.79,1691,1711,3.26,0,0,0,0,1,0,
124,4088.72,4152.31,4080.51,3863.08,4346.67,4131.79,4600,4535.38,4308.21,3953.85,4253.33,4622.56,4405.64,4629.23,1693,1711,3.267,0,0,0,0,1,0,
125,4089.74,4153.85,4083.08,3869.23,4347.69,4131.28,4598.46,4535.9,4308.72,3956.41,4253.33,4624.1,4402.05,4624.1,1692,1712,3.275,0,0,0,0,1,0,
126,4091.28,4154.36,4083.59,3868.21,4350.77,4133.85,4604.1,4539.49,4310.77,3954.87,4251.79,4627.18,4397.95,4624.1,1692,1712,3.283,0,0,0,0,1,0,
127,4089.74,4155.9,4086.15,3862.56,4355.9,4137.44,4607.69,4540.51,4315.38,3962.05,4260,4630.26,4403.59,4629.74,1691,1711,3.291,0,0,0,0,1,0,
128,4092.31,4159.49,4091.79,3869.74,4358.97,4134.87,4604.62,4540,4320.51,3977.95,4267.18,4632.82,4409.74,4633.33,1692,1711,3.299,0,0,0,0,1,0,
0,4095.38,4156.92,4089.74,3875.9,4353.85,4132.82,4604.1,4543.59,4321.54,3980.51,4263.08,4631.79,4406.67,4631.79,1691,1710,3.306,0,0,0,0,1,0,
1,4093.33,4154.36,4087.69,3869.23,4347.18,4134.87,4607.18,4544.1,4318.97,3970.26,4265.64,4632.31,4405.13,4632.82,1691,1709,3.314,0,0,0,0,1,0,
2,4094.87,4157.95,4091.79,3864.1,4345.13,4129.74,4604.62,4537.44,4312.31,3963.59,4268.72,4632.82,4404.1,4633.85,1689,1709,3.322,0,0,0,0,1,0,
3,4100.51,4155.38,4090.26,3865.64,4346.15,4121.03,4599.49,4533.33,4306.67,3958.97,4262.56,4630.77,4404.1,4631.28,1691,1708,3.33,0,0,0,0,1,0,
4,4103.08,4157.95,4091.79,3870.26,4347.69,4123.08,4601.03,4536.41,4310.26,3962.56,4267.18,4632.82,4410.77,4635.38,1689,1708,3.338,0,0,0,0,1,0,
5,4107.69,4169.23,4102.56,3877.44,4347.18,4131.79,4603.59,4539.49,4315.9,3974.36,4276.92,4636.41,4415.38,4644.62,1691,1710,3.346,0,0,0,0,1,0,
6,4107.18,4166.15,4103.08,3882.05,4349.74,4134.87,4602.05,4537.95,4312.82,3968.21,4272.31,4634.36,4413.33,4643.59,1691,1709,3.353,0,0,0,0,1,0,
7,4102.05,4155.38,4092.31,3877.44,4350.77,4133.33,4603.59,4535.9,4308.72,3954.36,4262.56,4632.82,4408.21,4636.41,1690,1710,3.361,0,0,0,0,1,0,
8,4100,4154.87,4086.67,3867.69,4348.72,4132.82,4606.15,4536.41,4311.28,3957.44,4257.44,4629.74,4399.49,4631.28,1691,1711,3.369,0,0,0,0,1,0,
9,4095.38,4155.38,4086.15,3862.56,4349.23,4134.36,4603.59,4536.41,4312.82,3961.03,4248.72,4620,4394.36,4624.1,1690,1711,3.377,0,0,0,0,1,0,
10,4088.72,4151.28,4084.1,3863.08,4351.79,4133.33,4603.59,4534.87,4308.21,3954.87,4245.13,4616.92,4395.9,4624.62,1691,1711,3.385,0,0,0,0,1,0,
11,4089.74,4152.31,4084.62,3866.15,4349.74,4127.18,4605.64,4535.38,4307.69,3955.38,4248.21,4621.03,4392.82,4630.26,1691,1711,3.393,0,0,0,0,1,0,
12,4092.82,4153.85,4082.05,3866.15,4344.1,4125.13,4605.13,4536.92,4312.31,3957.44,4247.69,4618.46,4387.69,4627.18,1692,1711,3.4,0,0,0,0,1,0,
13,4092.31,4152.82,4080.51,3866.15,4347.18,4133.33,4605.64,4535.9,4312.31,3959.49,4244.1,4617.44,4390.26,4624.1,1691,1710,3.408,0,0,0,0,1,0,
14,4090.26,4151.79,4083.08,3860,4349.74,4135.38,4606.15,4536.92,4311.28,3960.51,4241.54,4621.03,4391.79,4625.64,1693,1710,3.416,0,0,0,0,1,0,
15,4087.18,4151.79,4083.08,3862.56,4343.59,4123.08,4602.05,4536.92,4311.28,3953.85,4240,4618.97,4388.21,4624.62,1692,1711,3.424,0,0,0,0,1,0,
16,4089.74,4155.38,4083.59,3873.85,4340,4118.97,4597.95,4527.69,4304.62,3950.77,4238.46,4620,4387.69,4628.21,1692,1712,3.432,0,0,0,0,1,0,
17,4095.38,4154.87,4087.18,3869.23,4344.1,4127.18,4596.41,4521.54,4300,3952.82,4239.49,4625.64,4391.28,4634.36,1691,1711,3.439,0,0,0,0,1,0,
18,4095.9,4152.82,4089.23,3858.46,4346.67,4129.23,4596.92,4528.21,4308.21,3957.44,4247.18,4627.18,4394.87,4634.36,1691,1713,3.447,0,0,0,0,1,0,
19,4093.85,4153.85,4085.64,3862.56,4344.1,4122.05,4599.49,4529.74,4310.77,3957.44,4245.64,4623.59,4390.26,4631.28,1691,1712,3.455,0,0,0,0,1,0,
20,4090.77,4154.87,4079.49,3867.18,4340.51,4120,4601.03,4526.15,4304.1,3945.64,4231.28,4617.95,4381.03,4628.21,1690,1712,3.463,0,0,0,0,1,0,
21,4089.23,4149.74,4080,3861.54,4338.97,4126.15,4602.05,4532.31,4306.15,3942.05,4229.23,4615.38,4383.59,4627.69,1691,1712,3.471,0,0,0,0,1,0,
22,4091.28,4144.1,4082.56,3860.51,4344.1,4130.26,4603.59,4538.97,4312.31,3954.36,4237.44,4618.46,4387.69,4630.77,1690,1711,3.479,0,0,0,0,1,0,
23,4092.82,4147.69,4082.05,3864.62,4347.69,4129.23,4603.59,4536.92,4314.36,3959.49,4231.79,4618.46,4382.56,4630.26,1691,1711,3.486,0,0,0,0,1,0,
24,4091.79,4154.87,4081.03,3868.21,4344.62,4130.77,4603.59,4538.97,4316.92,3959.49,4229.23,4616.41,4382.05,4628.21,1690,1712,3.494,0,0,0,0,1,0,
25,4092.31,4153.85,4083.59,3868.21,4344.62,4133.33,4602.56,4542.05,4315.38,3960.51,4236.41,4617.44,4386.67,4629.23,1691,1712,3.502,0,0,0,0,1,0,
26,4092.82,4149.23,4082.05,3865.13,4348.72,4131.79,4599.49,4538.46,4310.26,3960,4235.38,4616.41,4388.72,4630.26,1690,1712,3.51,0,0,0,0,1,0,
27,4093.85,4154.87,4081.54,3863.59,4351.79,4132.31,4603.08,4542.56,4314.87,3967.69,4234.87,4616.92,4394.36,4631.79,1690,1713,3.518,0,0,0,0,1,0,
28,4096.41,4163.59,4083.59,3865.13,4353.85,4137.44,4610.77,4553.33,4323.59,3975.38,4247.18,4617.95,4399.49,4632.31,1691,1712,3.525,0,0,0,0,1,0,
29,4096.41,4161.03,4081.54,3866.67,4354.87,4140.51,4610.77,4554.36,4320.51,3970.77,4247.18,4616.92,4400.51,4631.79,1690,1713,3.533,0,0,0,0,1,0,
30,4093.33,4151.79,4078.97,3866.67,4352.31,4138.97,4609.23,4545.13,4315.9,3973.33,4238.46,4617.44,4400,4631.79,1692,1712,3.541,0,0,0,0,1,0,
31,4091.28,4148.72,4080.51,3864.62,4348.21,4135.38,4609.23,4538.46,4313.85,3974.36,4240.51,4616.92,4393.33,4630.77,1691,1712,3.549,0,0,0,0,1,0,
32,4092.31,4152.82,4084.62,3863.59,4347.18,4137.44,4610.26,4538.97,4312.82,3963.59,4242.05,4616.92,4391.28,4630.26,1692,1712,3.557,0,0,0,0,1,0,
33,4092.31,4152.82,4086.15,3864.62,4348.21,4136.92,4608.21,4540.51,4312.82,3958.97,4233.85,4619.49,4395.9,4631.79,1692,1712,3.565,0,0,0,0,1,0,
34,4089.74,4147.18,4083.59,3864.62,4342.56,4126.67,4602.05,4537.44,4311.79,3965.13,4229.23,4617.44,4389.74,4630.77,1691,1712,3.572,0,0,0,0,1,0,
35,4088.21,4145.13,4081.54,3863.59,4337.95,4123.08,4602.05,4540.51,4313.85,3969.23,4235.9,4616.92,4385.13,4628.21,1691,1711,3.58,0,0,0,0,1,0,
36,4092.82,4151.79,4086.67,3864.1,4346.15,4132.31,4612.82,4551.79,4321.54,3971.79,4245.13,4627.69,4394.36,4630.26,1690,1711,3.588,0,0,0,0,1,0,
37,4099.49,4158.97,4092.82,3867.69,4353.85,4138.46,4621.03,4558.97,4328.72,3976.41,4248.72,4632.82,4397.44,4636.41,1691,1710,3.596,0,0,0,0,1,0,
38,4099.49,4155.38,4091.28,3867.69,4349.23,4137.44,4615.38,4553.85,4327.18,3975.9,4245.64,4626.67,4392.82,4634.87,1690,1711,3.604,0,0,0,0,1,0,
39,4096.41,4148.72,4088.21,3863.08,4347.18,4131.79,4606.67,4543.59,4319.49,3971.79,4246.15,4625.13,4393.85,4632.31,1692,1710,3.611,0,0,0,0,1,0,
40,4100,4156.92,4090.77,3869.23,4354.36,4126.67,4601.54,4540.51,4314.36,3973.33,4246.15,4625.64,4395.9,4634.87,1690,1711,3.619,0,0,0,0,1,0,
41,4104.62,4166.67,4090.26,3880.51,4356.41,4129.23,4600.51,4540,4311.28,3975.9,4244.62,4623.59,4391.28,4635.9,1691,1711,3.627,0,0,0,0,1,0,
42,4103.59,4160,4089.23,3873.85,4352.82,4134.36,4601.03,4536.41,4309.74,3970.77,4248.72,4623.08,4388.72,4633.33,1690,1711,3.635,0,0,0,0,1,0,
43,4100,4154.36,4090.26,3863.59,4354.87,4132.82,4603.08,4535.38,4310.77,3962.56,4243.08,4621.03,4383.59,4633.85,1691,1711,3.643,0,0,0,0,1,0,
44,4094.36,4153.33,4088.21,3866.15,4357.44,4133.33,4608.21,4537.95,4313.33,3956.92,4226.15,4616.92,4373.33,4631.28,1691,1711,3.651,0,0,0,0,1,0,
45,4089.74,4149.74,4084.1,3865.13,4352.31,4138.97,4609.74,4538.97,4312.31,3949.23,4217.44,4615.38,4365.64,4622.05,1691,1712,3.658,0,0,0,0,1,0,
46,4089.23,4149.74,4084.1,3861.54,4347.69,4135.38,4610.26,4538.46,4310.26,3946.67,4221.54,4614.36,4363.59,4618.46,1691,1711,3.666,0,0,0,0,1,0,
47,4088.21,4147.18,4081.54,3865.13,4348.21,4130.77,4613.85,4538.46,4310.77,3953.85,4228.21,4614.87,4365.64,4620.51,1690,1711,3.674,0,0,0,0,1,0,
48,4088.72,4142.05,4079.49,3866.67,4350.77,4135.38,4615.38,4543.59,4313.85,3961.54,4232.82,4617.95,4369.23,4624.1,1691,1711,3.682,0,0,0,0,1,0,
49,4090.26,4148.72,4084.1,3864.62,4348.72,4136.41,4612.82,4548.21,4314.87,3958.97,4232.31,4616.92,4368.72,4629.74,1691,1710,3.69,0,0,0,0,1,0,
50,4091.28,4155.38,4086.67,3867.69,4343.59,4131.79,4610.26,4546.67,4313.85,3952.31,4230.26,4617.44,4367.69,4632.82,1691,1709,3.697,0,0,0,0,1,0,
51,4098.97,4153.33,4086.67,3870.77,4345.13,4129.74,4608.72,4546.15,4320.51,3962.56,4238.46,4619.49,4378.46,4632.31,1692,1710,3.705,0,0,0,0,1,0,
52,4101.54,4152.31,4086.15,3868.21,4352.31,4133.33,4605.13,4545.13,4322.56,3974.36,4247.69,4618.46,4381.03,4632.31,1691,1709,3.713,0,0,0,0,1,0,
53,4091.79,4149.23,4078.97,3864.62,4352.82,4136.92,4601.54,4536.41,4309.23,3965.64,4246.15,4615.38,4372.82,4630.77,1692,1709,3.721,0,0,0,0,1,0,
54,4088.21,4149.74,4072.31,3865.13,4348.21,4130.26,4598.46,4531.28,4302.05,3951.28,4246.67,4614.87,4376.41,4628.72,1692,1709,3.729,0,0,0,0,1,0,
55,4092.82,4157.44,4075.38,3864.62,4350.26,4124.62,4600,4537.44,4313.33,3960,4250.77,4616.92,4384.1,4631.79,1692,1710,3.737,0,0,0,0,1,0,
56,4093.33,4156.41,4078.46,3862.56,4355.9,4132.82,4604.62,4541.54,4318.97,3969.74,4245.64,4616.41,4378.97,4632.31,1693,1712,3.744,0,0,0,0,1,0,
57,4091.28,4150.77,4074.87,3864.62,4352.82,4140,4605.13,4537.95,4316.92,3958.97,4241.54,4614.36,4372.31,4628.21,1692,1712,3.752,0,0,0,0,1,0,
58,4093.33,4154.36,4075.38,3868.21,4346.15,4133.85,4605.13,4542.56,4322.05,3958.46,4247.69,4613.85,4376.41,4627.69,1693,1711,3.76,0,0,0,0,1,0,
59,4094.36,4157.44,4082.05,3865.64,4349.23,4132.31,4609.74,4548.21,4322.56,3973.33,4251.28,4614.87,4380,4630.77,1691,1712,3.768,0,0,0,0,1,0,
60,4097.44,4155.38,4086.15,3863.08,4354.36,4137.44,4615.38,4545.13,4315.38,3970.26,4249.74,4616.92,4377.95,4633.33,1693,1711,3.776,0,0,0,0,1,0,
61,4101.54,4154.36,4086.67,3868.72,4353.33,4138.46,4618.97,4543.08,4313.33,3960,4255.38,4616.92,4376.92,4633.33,1691,1712,3.783,0,0,0,0,1,0,
62,4098.97,4153.33,4086.67,3871.79,4350.26,4132.82,4613.85,4546.67,4317.44,3966.67,4264.62,4615.9,4382.05,4631.28,1691,1712,3.791,0,0,0,0,1,0,
63,4091.28,4151.79,4085.64,3865.13,4345.64,4127.18,4606.15,4542.05,4314.36,3966.67,4259.49,4614.36,4380.51,4627.69,1690,1712,3.799,0,0,0,0,1,0,
64,4087.18,4149.23,4081.54,3860.51,4344.62,4134.36,4609.23,4535.38,4309.23,3957.44,4245.64,4612.31,4369.23,4625.13,1690,1712,3.807,0,0,0,0,1,0,
65,4089.23,4148.72,4081.54,3864.62,4350.77,4135.9,4609.74,4536.41,4310.77,3963.08,4249.23,4612.82,4371.79,4628.72,1690,1712,3.815,0,0,0,0,1,0,
66,4097.95,4153.33,4087.18,3868.21,4356.41,4125.13,4602.05,4537.95,4312.82,3970.77,4263.59,4616.92,4387.18,4633.85,1689,1713,3.823,0,0,0,0,1,0,
67,4101.54,4156.92,4090.26,3864.62,4358.97,4128.21,4607.69,4538.97,4315.38,3970.77,4267.18,4617.95,4388.21,4632.31,1690,1712,3.83,0,0,0,0,1,0,
68,4099.49,4154.36,4087.18,3870.77,4360,4140.51,4619.49,4542.05,4320,3972.31,4263.59,4616.41,4378.97,4631.28,1690,1712,3.838,0,0,0,0,1,0,
69,4097.44,4151.79,4083.08,3878.97,4358.97,4136.92,4617.44,4547.18,4322.05,3971.28,4263.08,4615.38,4377.95,4630.77,1691,1711,3.847,0,0,0,0,1,0,
70,4092.31,4153.33,4080,3868.21,4353.85,4125.64,4614.87,4554.36,4321.03,3969.23,4265.13,4615.38,4380.51,4622.56,1691,1712,3.854,0,0,0,0,1,0,
71,4094.36,4154.36,4081.54,3858.97,4354.87,4125.64,4618.46,4555.9,4322.56,3975.38,4266.67,4617.44,4380.51,4622.56,1693,1710,3.862,0,0,0,0,1,0,
72,4103.08,4152.31,4086.67,3866.67,4361.54,4134.36,4616.41,4553.85,4321.54,3974.87,4265.64,4619.49,4383.08,4631.28,1691,1710,3.87,0,0,0,0,1,0,
73,4098.46,4150.77,4084.62,3869.23,4355.38,4141.03,4612.31,4548.72,4313.33,3957.44,4262.05,4617.44,4373.85,4625.64,1693,1711,3.877,0,0,0,0,1,0,
74,4091.79,4152.82,4082.05,3864.1,4347.69,4130.77,4606.15,4541.03,4312.31,3950.26,4260,4615.9,4364.1,4617.44,1692,1709,3.885,0,0,0,0,1,0,
75,4102.05,4152.31,4085.13,3866.15,4355.9,4120,4603.08,4538.97,4317.44,3964.1,4260.51,4617.44,4375.9,4624.62,1692,1710,3.893,0,0,0,0,1,0,
76,4107.18,4156.92,4085.13,3871.28,4366.67,4129.23,4608.21,4539.49,4316.41,3970.26,4263.59,4617.44,4385.13,4630.26,1692,1709,3.901,0,0,0,0,1,0,
77,4101.03,4165.13,4081.54,3873.33,4363.08,4134.36,4607.69,4536.41,4310.77,3960,4262.05,4616.92,4372.82,4624.62,1691,1710,3.909,0,0,0,0,1,0,
78,4103.08,4160.51,4081.03,3870.26,4358.46,4125.64,4602.05,4533.85,4306.67,3954.87,4256.41,4616.92,4365.13,4621.03,1692,1710,3.916,0,0,0,0,1,0,
79,4099.49,4149.74,4076.41,3862.56,4360.51,4125.64,4606.15,4535.38,4307.18,3957.95,4258.46,4615.9,4369.74,4617.44,1691,1710,3.924,0,0,0,0,1,0,
80,4091.79,4150.26,4072.82,3860.51,4358.46,4134.87,4610.77,4538.97,4316.41,3960,4264.1,4614.36,4369.74,4615.38,1692,1710,3.932,0,0,0,0,1,0,
81,4092.31,4155.38,4075.9,3864.62,4355.38,4134.87,4608.21,4542.05,4323.08,3960,4262.05,4610.77,4369.23,4615.38,1691,1711,3.94,0,0,0,0,1,0,
82,4094.36,4152.82,4074.87,3865.13,4358.46,4131.28,4605.13,4538.97,4316.92,3961.54,4257.95,4610.26,4371.79,4613.33,1691,1710,3.948,0,0,0,0,1,0,
83,4097.95,4153.33,4074.36,3864.62,4364.1,4135.38,4606.15,4540,4316.41,3973.33,4264.1,4615.38,4375.9,4616.41,1689,1710,3.956,0,0,0,0,1,0,
84,4102.56,4157.44,4078.46,3868.21,4361.54,4137.95,4609.74,4550.77,4327.18,3978.46,4271.28,4616.92,4381.03,4620.51,1690,1711,3.963,0,0,0,0,1,0,
85,4100.51,4155.38,4077.44,3869.74,4354.87,4130.26,4610.77,4548.72,4324.1,3963.59,4265.64,4612.82,4374.87,4614.36,1690,1710,3.971,0,0,0,0,1,0,
86,4102.05,4160,4079.49,3870.77,4355.9,4123.08,4606.67,4539.49,4311.79,3955.9,4264.62,4613.85,4370.77,4615.9,1690,1710,3.979,0,0,0,0,1,0,
87,4110.77,4170.26,4088.72,3878.46,4362.05,4129.23,4606.67,4541.54,4317.44,3968.21,4277.44,4621.03,4384.62,4630.26,1691,1708,3.988,0,0,0,0,1,0,
88,4112.82,4170.77,4092.82,3880.51,4367.69,4138.97,4610.77,4546.15,4326.15,3978.46,4282.56,4626.15,4390.77,4634.36,1690,1709,3.995,0,0,0,0,1,0,
89,4113.85,4167.18,4095.38,3878.97,4366.15,4136.41,4613.33,4540,4314.36,3976.92,4279.49,4629.74,4380,4630.77,1692,1709,4.002,0,0,0,0,1,0,
90,4118.46,4166.15,4101.54,3881.54,4361.54,4132.31,4611.79,4535.9,4305.13,3971.79,4274.87,4628.21,4376.92,4632.31,1691,1710,4.01,0,0,0,0,1,0,
91,4114.36,4161.54,4096.92,3873.85,4363.08,4137.44,4609.23,4539.49,4314.36,3969.74,4267.69,4624.1,4381.54,4630.26,1691,1710,4.018,0,0,0,0,1,0,
92,4105.64,4154.36,4089.23,3865.13,4363.59,4138.46,4604.62,4540,4319.49,3971.79,4268.72,4622.56,4376.92,4626.67,1690,1710,4.026,0,0,0,0,1,0,
93,4105.64,4155.38,4091.79,3874.87,4358.97,4127.69,4604.1,4538.97,4317.44,3970.26,4275.9,4624.1,4373.33,4626.15,1690,1710,4.034,0,0,0,0,1,0,
94,4106.67,4163.08,4092.31,3881.54,4360.51,4124.1,4608.21,4544.1,4323.59,3965.64,4276.41,4627.18,4377.95,4628.21,1689,1710,4.042,0,0,0,0,1,0,
95,4105.64,4163.08,4089.74,3872.82,4363.08,4134.36,4613.33,4551.28,4328.21,3968.21,4273.85,4629.74,4377.95,4626.67,1689,1711,4.049,0,0,0,0,1,0,
96,4107.69,4160,4092.31,3868.72,4360.51,4141.03,4618.46,4556.41,4326.67,3972.31,4277.44,4629.23,4374.87,4622.56,1690,1709,4.057,0,0,0,0,1,0,
97,4110.26,4161.03,4093.33,3870.77,4361.03,4136.41,4616.92,4552.82,4326.67,3972.82,4279.49,4630.26,4377.44,4620.51,1689,1711,4.065,0,0,0,0,1,0,
98,4109.23,4157.95,4088.21,3869.23,4361.03,4131.79,4607.18,4544.62,4322.56,3972.31,4271.28,4626.67,4374.36,4621.03,1690,1710,4.073,0,0,0,0,1,0,
99,4106.15,4155.9,4086.67,3868.21,4353.33,4131.79,4602.56,4538.97,4316.92,3967.18,4262.05,4621.03,4363.08,4616.41,1689,1711,4.081,0,0,0,0,1,0,
100,4104.62,4160,4086.67,3865.13,4351.28,4129.74,4606.15,4539.49,4316.41,3958.46,4266.67,4619.49,4361.54,4612.31,1690,1710,4.088,0,0,0,0,1,0,
101,4107.69,4159.49,4085.64,3863.08,4358.97,4131.79,4606.67,4540,4318.97,3958.46,4270.26,4620.51,4369.74,4615.38,1689,1710,4.096,0,0,0,0,1,0,
102,4108.72,4155.9,4086.67,3870.26,4357.44,4133.85,4600,4536.92,4316.92,3962.56,4262.05,4617.44,4367.18,4617.95,1690,1710,4.104,0,0,0,0,1,0,
103,4106.67,4157.95,4087.18,3876.92,4354.36,4126.67,4600.51,4534.36,4311.28,3960,4257.95,4616.41,4363.08,4612.31,1689,1710,4.112,0,0,0,0,1,0,
104,4104.62,4156.92,4084.62,3870.26,4357.44,4124.1,4607.18,4535.38,4309.23,3955.9,4261.03,4617.95,4365.13,4604.1,1691,1711,4.12,0,0,0,0,1,0,
105,4104.1,4153.33,4082.05,3862.05,4357.95,4134.36,4607.18,4537.95,4314.87,3953.85,4261.54,4616.41,4363.08,4605.13,1690,1710,4.128,0,0,0,0,1,0,
106,4104.1,4155.9,4083.08,3864.62,4357.44,4141.03,4607.69,4537.95,4320.51,3955.9,4265.13,4617.44,4365.13,4610.77,1691,1709,4.135,0,0,0,0,1,0,
107,4105.13,4153.85,4084.62,3868.21,4358.46,4136.92,4613.33,4538.97,4316.92,3959.49,4266.15,4618.97,4367.18,4606.67,1691,1710,4.143,0,0,0,0,1,0,
108,4104.1,4149.74,4082.05,3864.1,4352.82,4130.26,4611.79,4536.41,4308.21,3958.46,4257.44,4616.92,4358.97,4599.49,1692,1709,4.151,0,0,0,0,1,0,
109,4098.46,4148.72,4076.92,3858.46,4343.59,4123.59,4600,4528.21,4307.69,3957.44,4253.85,4615.9,4354.36,4601.54,1692,1709,4.159,0,0,0,0,1,0,
110,4100,4148.21,4077.44,3860.51,4344.1,4123.59,4597.95,4530.26,4317.44,3964.1,4257.95,4615.9,4363.59,4606.15,1692,1710,4.167,0,0,0,0,1,0,
111,4106.67,4152.82,4085.13,3867.18,4352.31,4126.15,4605.64,4539.49,4322.05,3968.21,4263.59,4617.95,4368.72,4607.69,1691,1710,4.174,0,0,0,0,1,0,
112,4107.18,4154.87,4085.13,3868.72,4356.92,4126.67,4603.59,4537.44,4317.44,3960,4264.62,4618.97,4365.64,4605.13,1692,1710,4.182,0,0,0,0,1,0,
113,4104.1,4152.31,4078.97,3863.59,4356.41,4131.79,4601.54,4533.85,4315.38,3953.33,4254.36,4617.44,4363.08,4601.03,1691,1710,4.19,0,0,0,0,1,0,
114,4105.64,4153.85,4081.54,3862.56,4356.92,4135.9,4610.26,4536.92,4315.9,3956.92,4247.18,4615.9,4361.03,4602.05,1691,1711,4.198,0,0,0,0,1,0,
115,4106.15,4157.44,4086.67,3871.79,4357.95,4133.33,4615.9,4537.44,4314.36,3959.49,4255.38,4617.95,4360,4603.08,1690,1710,4.206,0,0,0,0,1,0,
116,4105.64,4154.87,4085.13,3873.85,4353.85,4133.33,4610.77,4536.41,4312.31,3954.87,4262.56,4620.51,4359.49,4601.03,1689,1710,4.214,0,0,0,0,1,0,
117,4107.69,4152.31,4083.59,3864.62,4353.33,4136.92,4611.28,4536.41,4316.41,3955.9,4251.79,4617.44,4355.9,4602.05,1690,1710,4.221,0,0,0,0,1,0,
118,4101.54,4150.77,4083.08,3862.56,4359.49,4135.38,4618.46,4536.92,4323.08,3963.08,4244.62,4613.85,4353.85,4601.03,1689,1710,4.229,0,0,0,0,1,0,
119,4093.33,4148.21,4076.92,3865.64,4358.97,4134.36,4613.85,4541.54,4322.05,3962.56,4249.23,4614.87,4352.31,4593.85,1690,1710,4.237,0,0,0,0,1,0,
120,4097.44,4149.23,4076.41,3862.56,4352.82,4131.28,4601.54,4535.9,4311.28,3953.85,4249.74,4616.92,4351.79,4592.31,1689,1710,4.245,0,0,0,0,1,0,
121,4103.59,4153.33,4085.13,3862.05,4350.26,4123.08,4597.44,4521.54,4306.67,3954.87,4246.67,4615.9,4354.36,4601.03,1690,1710,4.253,0,0,0,0,1,0,
122,4103.59,4151.28,4087.69,3869.23,4350.26,4122.56,4604.62,4523.08,4313.85,3959.49,4253.85,4615.9,4357.95,4604.62,1690,1710,4.261,0,0,0,0,1,0,
123,4103.59,4148.72,4086.67,3867.18,4349.74,4130.26,4606.67,4536.41,4318.46,3957.44,4262.05,4620.51,4356.92,4602.05,1691,1711,4.268,0,0,0,0,1,0,
124,4106.15,4152.82,4090.26,3862.05,4350.77,4132.82,4605.13,4538.97,4317.95,3956.92,4259.49,4622.56,4356.41,4603.08,1691,1710,4.276,0,0,0,0,1,0,
125,4107.18,4157.95,4091.79,3871.79,4351.79,4130.26,4607.18,4536.41,4320.51,3958.97,4253.33,4618.46,4360.51,4605.13,1691,1710,4.284,0,0,0,0,1,0,
126,4106.15,4152.82,4088.21,3878.46,4353.85,4134.36,4609.74,4537.44,4324.62,3959.49,4252.31,4617.44,4361.03,4604.62,1692,1709,4.292,0,0,0,0,1,0,
127,4097.95,4144.62,4081.54,3866.67,4354.36,4137.95,4605.13,4534.36,4317.95,3958.97,4252.31,4616.92,4352.31,4601.54,1692,1711,4.3,0,0,0,0,1,0,
128,4090.77,4146.67,4073.85,3856.92,4349.74,4134.87,4598.97,4531.28,4310.26,3955.9,4247.18,4614.36,4347.69,4598.46,1693,1710,4.307,0,0,0,0,1,0,
0,4096.92,4152.82,4073.33,3862.56,4354.36,4132.31,4607.18,4536.41,4319.49,3960.51,4249.74,4614.36,4356.92,4600.51,1692,1711,4.315,0,0,0,0,1,0,
1,4104.1,4151.79,4079.49,3870.77,4361.03,4136.41,4616.92,4540,4329.74,3973.33,4258.46,4615.38,4364.1,4602.56,1692,1712,4.323,0,0,0,0,1,0,
2,4105.64,4150.77,4079.49,3870.77,4359.49,4136.41,4611.79,4538.46,4324.62,3973.33,4258.46,4615.9,4362.05,4600.51,1691,1711,4.331,0,0,0,0,1,0,
3,4104.1,4157.95,4076.41,3865.64,4358.97,4130.26,4606.67,4535.9,4320,3961.54,4253.33,4616.41,4361.54,4601.54,1692,1712,4.339,0,0,0,0,1,0,
4,4098.97,4154.87,4073.85,3862.56,4357.44,4131.79,4608.21,4535.38,4323.08,3955.38,4246.67,4612.31,4356.41,4600,1691,1710,4.347,0,0,0,0,1,0,
5,4094.87,4145.13,4071.79,3865.64,4349.74,4135.9,4608.21,4536.92,4326.15,3956.41,4243.08,4609.23,4350.77,4595.9,1691,1711,4.354,0,0,0,0,1,0,
6,4101.03,4153.85,4078.46,3865.13,4352.31,4133.33,4606.15,4535.38,4327.69,3967.69,4253.33,4616.92,4360,4600.51,1691,1710,4.362,0,0,0,0,1,0,
7,4109.23,4166.67,4086.67,3864.62,4363.59,4132.31,4607.18,4531.28,4326.15,3980.51,4265.13,4621.54,4369.74,4607.18,1691,1712,4.37,0,0,0,0,1,0,
8,4106.67,4157.44,4083.08,3867.69,4358.97,4134.87,4605.64,4534.36,4322.05,3974.36,4254.36,4613.85,4363.59,4603.08,1691,1710,4.378,0,0,0,0,1,0,
9,4097.95,4145.13,4074.36,3864.1,4349.74,4133.33,4602.05,4535.9,4318.46,3956.41,4241.54,4609.23,4353.33,4598.46,1690,1712,4.386,0,0,0,0,1,0,
10,4092.82,4151.28,4074.87,3864.1,4351.79,4135.38,4601.54,4525.64,4315.38,3945.64,4245.13,4608.72,4348.72,4594.87,1691,1712,4.393,0,0,0,0,1,0,
11,4097.44,4156.92,4077.95,3867.18,4355.38,4138.46,4603.59,4526.67,4314.36,3951.28,4248.21,4606.15,4348.21,4594.87,1690,1712,4.401,0,0,0,0,1,0,
12,4102.05,4153.33,4076.41,3863.08,4354.87,4135.38,4604.62,4534.87,4316.92,3963.59,4241.03,4608.21,4349.23,4599.49,1691,1712,4.409,0,0,0,0,1,0,
13,4092.31,4148.21,4077.44,3861.03,4352.31,4128.72,4602.56,4531.79,4320.51,3957.44,4233.85,4610.26,4345.13,4595.38,1690,1711,4.417,0,0,0,0,1,0,
14,4091.28,4147.69,4082.56,3865.64,4348.72,4126.15,4600.51,4529.74,4320.51,3945.64,4240,4610.77,4346.15,4592.31,1690,1712,4.425,0,0,0,0,1,0,
15,4101.54,4152.82,4083.59,3865.64,4349.74,4127.18,4603.59,4530.77,4315.9,3953.33,4247.69,4613.85,4351.28,4597.95,1691,1710,4.433,0,0,0,0,1,0,
16,4100.51,4153.85,4080.51,3863.08,4354.87,4131.79,4603.59,4525.64,4311.28,3958.46,4238.97,4616.41,4346.15,4597.95,1691,1711,4.44,0,0,0,0,1,0,
17,4096.92,4149.23,4083.59,3864.62,4355.38,4133.33,4602.05,4522.05,4311.28,3948.72,4232.31,4615.38,4337.44,4595.38,1692,1711,4.448,0,0,0,0,1,0,
18,4105.13,4152.82,4089.74,3866.15,4354.36,4129.74,4604.62,4524.1,4312.31,3950.77,4248.21,4617.44,4342.56,4601.54,1691,1712,4.456,0,0,0,0,1,0,
19,4109.74,4158.46,4091.79,3866.15,4353.85,4130.26,4604.62,4521.54,4309.74,3957.44,4253.33,4619.49,4347.69,4604.1,1691,1710,4.464,0,0,0,0,1,0,
20,4105.13,4152.82,4088.72,3864.1,4351.28,4136.41,4601.54,4519.49,4308.72,3954.36,4233.33,4615.38,4343.59,4599.49,1691,1712,4.472,0,0,0,0,1,0,
21,4106.15,4153.85,4087.69,3868.72,4352.82,4131.79,4601.54,4523.08,4313.33,3954.36,4232.31,4615.38,4343.08,4600.51,1692,1710,4.479,0,0,0,0,1,0,
22,4108.72,4167.69,4088.72,3880,4357.44,4121.03,4601.03,4523.08,4317.95,3955.38,4254.36,4620,4347.18,4602.56,1691,1711,4.487,0,0,0,0,1,0,
23,4107.18,4163.08,4087.69,3876.41,4353.85,4125.13,4598.46,4520,4317.44,3955.9,4257.95,4618.97,4350.77,4603.08,1692,1711,4.495,0,0,0,0,1,0,
24,4106.15,4152.31,4084.1,3863.59,4353.85,4134.87,4604.1,4526.67,4321.54,3966.67,4246.67,4617.44,4354.87,4603.59,1692,1710,4.503,0,0,0,0,1,0,
25,4108.21,4162.56,4084.62,3865.64,4364.1,4135.9,4614.36,4538.97,4324.62,3972.31,4248.21,4621.54,4353.85,4604.1,1691,1711,4.511,0,0,0,0,1,0,
26,4108.72,4167.69,4086.15,3871.79,4364.62,4137.95,4612.82,4532.82,4315.9,3963.59,4253.33,4622.56,4347.69,4603.08,1692,1711,4.519,0,0,0,0,1,0,
27,4101.03,4153.33,4081.03,3864.1,4352.82,4137.95,4607.69,4521.54,4309.23,3958.97,4251.79,4617.44,4347.69,4601.54,1691,1712,4.526,0,0,0,0,1,0,
28,4093.33,4147.18,4075.9,3860.51,4350.77,4127.69,4605.13,4522.56,4313.33,3961.54,4250.77,4616.41,4349.23,4598.97,1691,1711,4.534,0,0,0,0,1,0,
29,4092.82,4156.92,4074.36,3864.62,4356.92,4126.67,4602.05,4524.62,4312.31,3954.87,4249.23,4614.87,4341.03,4591.79,1691,1711,4.542,0,0,0,0,1,0,
30,4092.82,4165.13,4074.36,3863.08,4356.41,4133.33,4600.51,4517.44,4306.67,3938.46,4245.64,4610.26,4330.77,4586.67,1691,1711,4.55,0,0,0,0,1,0,
31,4090.26,4168.72,4074.87,3868.21,4356.92,4130.26,4602.05,4508.72,4309.23,3930.26,4238.46,4607.69,4322.56,4587.18,1690,1711,4.558,0,0,0,0,1,0,
32,4091.79,4169.74,4074.36,3878.46,4361.03,4130.26,4602.05,4510.77,4310.26,3937.44,4231.28,4607.69,4318.97,4588.72,1690,1711,4.565,0,0,0,0,1,0,
33,4094.87,4171.28,4071.28,3872.82,4361.54,4134.36,4601.03,4516.92,4308.21,3946.67,4233.33,4606.15,4322.05,4586.15,1690,1711,4.573,0,0,0,0,1,0,
34,4092.31,4171.79,4071.79,3860.51,4362.05,4130.26,4601.54,4518.46,4313.33,3946.15,4237.44,4605.13,4327.69,4588.72,1690,1710,4.581,0,0,0,0,1,0,
35,4089.23,4166.67,4073.33,3862.05,4366.15,4131.79,4601.54,4518.46,4315.9,3943.08,4234.36,4602.05,4327.18,4591.28,1690,1711,4.589,0,0,0,0,1,0,
36,4090.26,4162.56,4072.31,3865.64,4364.62,4138.46,4602.05,4520.51,4311.79,3945.13,4232.31,4600,4321.03,4587.18,1690,1711,4.597,0,0,0,0,1,0,
37,4092.31,4165.13,4072.82,3863.08,4362.05,4138.97,4603.08,4520.51,4313.85,3946.15,4232.82,4606.15,4320,4585.64,1689,1712,4.605,0,0,0,0,1,0,
38,4092.31,4166.67,4075.9,3863.59,4365.13,4135.38,4602.05,4521.03,4318.46,3942.56,4232.82,4616.41,4330.26,4593.85,1690,1711,4.612,0,0,0,0,1,0,
39,4096.92,4165.13,4081.54,3866.67,4363.08,4132.82,4603.08,4523.59,4318.97,3944.1,4242.56,4620,4337.44,4600.51,1690,1712,4.62,0,0,0,0,1,0,
40,4104.1,4165.64,4086.15,3867.18,4354.36,4131.79,4605.64,4521.54,4316.41,3948.21,4249.23,4617.44,4334.87,4600.51,1690,1711,4.628,0,0,0,0,1,0,
41,4106.15,4166.67,4085.64,3865.64,4348.72,4135.9,4606.67,4521.03,4312.82,3947.69,4241.03,4616.92,4330.26,4602.05,1689,1711,4.636,0,0,0,0,1,0,
42,4106.67,4166.15,4084.1,3869.74,4355.38,4136.41,4607.18,4523.59,4313.85,3948.21,4235.9,4618.97,4329.23,4604.1,1691,1712,4.644,0,0,0,0,1,0,
43,4102.56,4168.72,4086.15,3872.31,4363.08,4135.9,4608.21,4523.59,4316.92,3948.21,4236.41,4618.46,4327.18,4600,1691,1711,4.652,0,0,0,0,1,0,
44,4094.36,4169.23,4085.64,3872.31,4362.56,4137.95,4611.28,4522.05,4315.38,3946.15,4233.85,4615.9,4326.15,4593.33,1691,1712,4.659,0,0,0,0,1,0,
45,4091.28,4164.62,4080.51,3872.31,4359.49,4137.95,4613.33,4529.23,4320,3952.82,4231.79,4613.85,4327.69,4592.82,1692,1710,4.667,0,0,0,0,1,0,
46,4090.77,4166.15,4076.41,3869.23,4362.56,4138.97,4610.26,4539.49,4326.67,3957.95,4233.85,4613.85,4327.69,4591.28,1692,1710,4.675,0,0,0,0,1,0,
47,4088.72,4169.74,4076.41,3865.13,4364.1,4141.03,4606.15,4534.87,4316.92,3954.36,4236.41,4615.38,4330.26,4590.26,1692,1711,4.683,0,0,0,0,1,0,
48,4094.87,4168.21,4080,3863.08,4360,4138.97,4604.1,4522.56,4307.18,3952.82,4245.13,4615.9,4333.85,4595.9,1691,1713,4.692,0,0,0,0,1,0,
49,4106.67,4169.23,4084.62,3870.26,4358.46,4135.38,4602.56,4522.56,4313.33,3952.31,4249.74,4615.9,4331.79,4601.03,1692,1713,4.698,0,0,0,0,1,0,
50,4108.21,4175.9,4089.74,3881.03,4358.97,4134.87,4601.54,4528.21,4315.38,3948.72,4244.62,4622.56,4336.41,4604.1,1690,1714,4.706,0,0,0,0,1,0,
51,4107.18,4175.9,4094.36,3877.44,4358.97,4133.85,4604.1,4525.13,4308.72,3946.15,4244.1,4626.15,4341.03,4607.18,1691,1713,4.714,0,0,0,0,1,0,
52,4107.18,4167.18,4091.79,3871.28,4356.41,4131.28,4603.59,4526.67,4309.23,3944.1,4247.69,4620,4334.36,4604.1,1689,1712,4.722,0,0,0,0,1,0,
53,4104.62,4164.62,4086.67,3873.85,4355.38,4131.79,4605.13,4533.33,4316.92,3950.26,4244.1,4616.92,4329.23,4598.46,1689,1713,4.73,0,0,0,0,1,0,
54,4097.95,4168.72,4083.59,3869.74,4358.46,4135.9,4611.79,4530.77,4317.95,3961.54,4238.46,4620.51,4332.31,4598.46,1689,1711,4.738,0,0,0,0,1,0,
55,4094.36,4169.23,4081.54,3860,4360.51,4138.97,4609.23,4521.54,4311.79,3958.46,4240,4617.44,4332.31,4596.92,1688,1713,4.745,0,0,0,0,1,0,
56,4098.46,4167.69,4080.51,3863.08,4360.51,4132.82,4602.56,4519.49,4306.15,3946.67,4245.13,4614.36,4331.28,4597.44,1689,1712,4.753,0,0,0,0,1,0,
57,4103.59,4172.82,4082.05,3873.33,4362.05,4127.18,4602.05,4521.03,4307.18,3950.26,4248.72,4617.44,4333.33,4601.03,1688,1713,4.761,0,0,0,0,1,0,
58,4105.13,4177.44,4085.13,3877.44,4364.1,4129.23,4603.08,4521.03,4310.26,3956.92,4241.03,4617.95,4333.85,4601.03,1689,1713,4.769,0,0,0,0,1,0,
59,4104.62,4174.36,4084.1,3876.41,4360.51,4131.28,4600.51,4521.03,4309.23,3950.26,4230.77,4614.87,4332.82,4600.51,1689,1712,4.777,0,0,0,0,1,0,
60,4105.64,4174.36,4083.59,3875.9,4358.46,4133.33,4600,4520.51,4309.23,3939.49,4235.9,4616.41,4334.36,4602.05,1690,1712,4.784,0,0,0,0,1,0,
61,4108.21,4177.44,4086.67,3880.51,4365.13,4136.41,4602.05,4523.59,4315.9,3939.49,4249.23,4621.54,4339.49,4602.05,1690,1712,4.792,0,0,0,0,1,0,
62,4109.23,4173.85,4086.15,3878.46,4370.26,4137.44,4605.64,4529.23,4317.44,3951.28,4251.28,4622.56,4341.03,4603.59,1692,1712,4.8,0,0,0,0,1,0,
63,4105.64,4168.72,4082.05,3874.87,4365.64,4136.41,4606.67,4525.64,4309.74,3959.49,4238.46,4618.46,4330.26,4602.56,1692,1712,4.808,0,0,0,0,1,0,
64,4099.49,4169.74,4077.95,3874.87,4357.95,4136.92,4605.13,4521.54,4306.67,3953.33,4227.18,4613.85,4321.03,4592.31,1692,1714,4.816,0,0,0,0,1,0,
65,4097.95,4170.26,4075.38,3868.72,4357.95,4138.97,4611.79,4530.26,4313.85,3945.64,4234.87,4611.79,4322.05,4589.23,1693,1711,4.824,0,0,0,0,1,0,
66,4097.44,4163.59,4074.87,3861.54,4365.13,4139.49,4617.95,4531.79,4316.41,3953.85,4248.21,4613.33,4325.13,4593.33,1692,1713,4.832,0,0,0,0,1,0,
67,4095.38,4160.51,4074.87,3862.56,4369.23,4140.51,4615.9,4522.05,4312.82,3961.54,4242.05,4613.33,4326.67,4590.26,1693,1710,4.839,0,0,0,0,1,0,
68,4097.44,4165.64,4074.87,3870.26,4368.21,4145.64,4614.87,4524.62,4314.36,3956.92,4233.33,4613.33,4324.62,4588.21,1693,1710,4.847,0,0,0,0,1,0,
69,4103.59,4172.31,4080.51,3879.49,4368.72,4146.67,4610.77,4532.82,4318.46,3956.41,4241.03,4615.9,4326.15,4597.95,1693,1710,4.855,0,0,0,0,1,0,
70,4107.18,4177.44,4086.15,3882.05,4372.31,4136.41,4601.54,4525.13,4318.46,3958.97,4246.67,4617.95,4331.79,4603.08,1692,1710,4.863,0,0,0,0,1,0,
71,4108.72,4182.56,4086.67,3876.92,4374.87,4131.79,4600.51,4518.97,4314.87,3957.44,4245.64,4617.44,4337.44,4601.54,1692,1711,4.87,0,0,0,0,1,0,
72,4110.77,4186.67,4089.23,3877.44,4375.38,4136.92,4604.62,4523.59,4313.85,3955.9,4247.69,4618.46,4340,4604.62,1691,1711,4.878,0,0,0,0,1,0,
73,4109.23,4187.18,4090.77,3882.56,4374.36,4136.92,4600.51,4520,4309.23,3956.41,4247.18,4618.97,4333.85,4603.59,1691,1712,4.887,0,0,0,0,1,0,
74,4103.59,4177.95,4083.59,3877.95,4367.69,4134.36,4597.95,4516.92,4304.1,3948.72,4246.67,4614.87,4327.18,4598.46,1690,1712,4.894,0,0,0,0,1,0,
75,4106.67,4171.79,4080,3873.33,4360.51,4136.92,4604.1,4521.54,4310.77,3943.59,4250.26,4615.9,4332.31,4601.54,1690,1713,4.902,0,0,0,0,1,0,
76,4114.36,4178.97,4086.15,3875.38,4362.56,4139.49,4610.26,4522.05,4318.97,3955.38,4246.15,4621.54,4340.51,4608.21,1689,1711,4.91,0,0,0,0,1,0,
77,4113.85,4179.49,4090.77,3878.46,4369.23,4139.49,4611.79,4524.1,4319.49,3964.1,4250.26,4625.64,4340.51,4611.28,1689,1713,4.917,0,0,0,0,1,0,
78,4112.82,4168.21,4091.28,3878.97,4365.64,4138.46,4615.9,4535.9,4322.05,3964.62,4265.13,4626.67,4341.54,4611.28,1690,1712,4.925,0,0,0,0,1,0,
79,4115.9,4168.21,4088.72,3874.87,4358.46,4139.49,4618.46,4538.46,4323.08,3971.79,4260,4627.18,4341.54,4607.69,1689,1712,4.933,0,0,0,0,1,0,
80,4112.82,4171.79,4085.64,3872.82,4355.9,4138.97,4608.21,4532.31,4317.44,3972.82,4248.72,4628.72,4336.41,4604.62,1691,1712,4.941,0,0,0,0,1,0,
81,4106.15,4165.13,4084.62,3868.21,4359.49,4135.9,4601.54,4531.79,4313.33,3962.05,4254.87,4625.13,4332.82,4605.13,1691,1711,4.949,0,0,0,0,1,0,
82,4104.62,4166.67,4081.03,3864.62,4366.67,4135.9,4609.74,4527.18,4314.87,3954.36,4257.95,4618.46,4330.77,4603.59,1691,1713,4.956,0,0,0,0,1,0,
83,4104.1,4170.77,4074.87,3869.23,4369.23,4138.46,4613.33,4521.54,4310.77,3947.69,4245.64,4616.92,4325.13,4597.95,1692,1713,4.964,0,0,0,0,1,0,
84,4095.9,4158.46,4070.77,3869.23,4364.62,4138.97,4604.1,4518.46,4304.1,3940.51,4234.87,4611.79,4313.85,4589.23,1691,1713,4.972,0,0,0,0,1,0,
85,4091.28,4151.79,4070.26,3863.08,4362.56,4138.46,4602.56,4513.33,4304.62,3943.08,4237.44,4606.67,4311.79,4587.69,1691,1712,4.98,0,0,0,0,1,0,
86,4095.38,4163.59,4072.82,3866.15,4367.69,4138.97,4609.23,4513.33,4307.69,3946.15,4244.1,4610.77,4322.05,4594.87,1691,1713,4.988,0,0,0,0,1,0,
87,4099.49,4170.26,4074.87,3869.23,4365.13,4138.97,4610.77,4522.05,4307.69,3941.03,4245.13,4615.9,4323.08,4596.92,1691,1713,4.996,0,0,0,0,1,0,
88,4100,4166.67,4077.44,3873.33,4358.97,4137.95,4607.69,4522.56,4308.21,3940.51,4251.79,4613.33,4316.41,4594.87,1691,1713,5.003,0,0,0,0,1,0,
89,4105.64,4171.79,4083.59,3883.08,4365.13,4136.92,4606.15,4517.95,4314.87,3950.26,4263.08,4615.9,4328.21,4602.05,1690,1712,5.011,0,0,0,0,1,0,
90,4111.28,4173.85,4087.69,3876.41,4373.33,4138.46,4605.64,4523.59,4319.49,3956.92,4258.97,4621.03,4342.05,4606.67,1691,1712,5.019,0,0,0,0,1,0,
91,4106.15,4166.15,4081.54,3860.51,4366.67,4137.95,4602.56,4520,4313.85,3954.36,4253.85,4617.44,4336.41,4601.03,1690,1712,5.027,0,0,0,0,1,0,
92,4103.59,4164.1,4076.41,3864.62,4356.41,4133.33,4602.56,4509.74,4309.74,3952.82,4256.41,4614.36,4329.23,4600,1690,1712,5.035,0,0,0,0,1,0,
93,4108.21,4169.74,4078.46,3871.79,4360.51,4132.31,4603.08,4513.85,4310.26,3957.44,4256.92,4617.95,4330.77,4603.59,1690,1711,5.042,0,0,0,0,1,0,
94,4105.13,4167.18,4078.46,3863.59,4365.64,4135.9,4602.56,4518.97,4310.77,3956.92,4257.44,4618.46,4331.28,4600,1690,1712,5.05,0,0,0,0,1,0,
95,4093.85,4157.95,4071.79,3862.56,4362.05,4137.95,4603.08,4507.69,4309.74,3946.15,4257.95,4608.72,4326.15,4589.74,1690,1711,5.058,0,0,0,0,1,0,
96,4094.87,4159.49,4069.74,3874.87,4360,4135.9,4602.56,4503.08,4309.74,3936.92,4255.38,4602.05,4321.03,4586.67,1690,1712,5.066,0,0,0,0,1,0,
97,4104.62,4170.77,4075.38,3879.49,4367.69,4135.9,4602.05,4511.79,4314.87,3944.62,4261.03,4608.21,4324.1,4593.33,1691,1711,5.074,0,0,0,0,1,0,
98,4102.56,4170.77,4075.9,3867.69,4371.28,4137.95,4602.56,4511.79,4316.41,3957.95,4268.72,4613.85,4328.21,4596.92,1690,1712,5.082,0,0,0,0,1,0,
99,4095.9,4162.05,4070.26,3861.03,4364.1,4137.95,4603.59,4506.67,4313.33,3954.87,4264.1,4613.85,4325.13,4595.38,1692,1712,5.089,0,0,0,0,1,0,
100,4101.54,4166.67,4074.36,3868.21,4360,4137.95,4605.64,4509.74,4311.79,3951.79,4263.08,4615.9,4325.64,4599.49,1692,1710,5.097,0,0,0,0,1,0,
101,4106.67,4171.79,4077.95,3869.23,4360.51,4141.54,4606.15,4512.31,4313.33,3959.49,4267.18,4619.49,4330.77,4603.59,1692,1711,5.105,0,0,0,0,1,0,
102,4095.9,4156.41,4069.23,3858.46,4354.36,4141.54,4602.05,4508.21,4311.28,3950.77,4264.62,4613.33,4323.08,4592.31,1692,1709,5.113,0,0,0,0,1,0,
103,4091.79,4151.28,4065.64,3863.08,4348.21,4136.92,4600.51,4505.13,4309.74,3940.51,4261.03,4607.69,4315.38,4585.13,1693,1709,5.121,0,0,0,0,1,0,
104,4102.05,4167.18,4076.41,3875.9,4352.82,4134.87,4602.56,4513.33,4312.82,3951.28,4266.67,4614.36,4322.56,4597.95,1692,1709,5.128,0,0,0,0,1,0,
105,4107.18,4169.23,4078.46,3871.79,4358.97,4133.85,4601.54,4516.41,4310.77,3957.95,4272.82,4618.97,4325.13,4605.13,1692,1710,5.136,0,0,0,0,1,0,
106,4099.49,4153.33,4068.21,3861.03,4358.46,4132.31,4598.46,4505.13,4300,3941.03,4265.13,4608.72,4312.31,4590.77,1692,1709,5.144,0,0,0,0,1,0,
107,4089.74,4149.23,4062.56,3858.46,4352.31,4133.85,4595.38,4496.92,4291.28,3925.64,4260.51,4601.54,4306.67,4581.54,1690,1711,5.152,0,0,0,0,1,0,
108,4091.28,4161.03,4065.64,3864.62,4354.36,4136.92,4601.03,4504.62,4300,3935.9,4271.79,4609.74,4318.97,4589.74,1692,1710,5.16,0,0,0,0,1,0,
109,4103.08,4171.79,4071.79,3871.79,4364.62,4137.95,4611.28,4515.38,4316.41,3952.31,4284.1,4617.44,4328.72,4600.51,1690,1710,5.168,0,0,0,0,1,0,
110,4108.21,4171.79,4075.38,3871.79,4365.13,4138.46,4610.77,4520.51,4316.92,3956.92,4284.1,4616.92,4325.64,4602.56,1691,1711,5.175,0,0,0,0,1,0,
111,4102.56,4166.67,4075.38,3867.18,4358.97,4137.95,4606.67,4520.51,4313.33,3956.92,4281.54,4616.41,4325.13,4599.49,1691,1710,5.183,0,0,0,0,1,0,
112,4104.1,4168.72,4076.41,3873.85,4358.46,4136.92,4608.21,4521.03,4317.95,3961.03,4284.1,4619.49,4331.28,4601.54,1691,1710,5.191,0,0,0,0,1,0,
113,4108.72,4169.74,4076.41,3882.05,4358.97,4135.9,4609.23,4521.54,4317.44,3961.03,4286.15,4618.97,4332.82,4603.08,1691,1708,5.199,0,0,0,0,1,0,
114,4108.21,4165.13,4076.41,3871.28,4357.44,4136.92,4611.28,4520,4312.82,3956.92,4288.21,4620,4330.26,4601.54,1691,1709,5.207,0,0,0,0,1,0,
115,4115.38,4167.18,4081.03,3860,4359.49,4140,4611.79,4523.59,4319.49,3960,4294.87,4629.23,4332.82,4607.69,1691,1709,5.215,0,0,0,0,1,0,
116,4124.62,4170.26,4086.67,3868.72,4358.97,4137.95,4605.13,4528.72,4325.13,3965.13,4299.49,4635.9,4336.41,4615.38,1692,1710,5.222,0,0,0,0,1,0,
117,4118.97,4167.69,4084.62,3877.95,4356.41,4133.85,4598.97,4517.44,4315.38,3966.15,4292.82,4629.23,4332.31,4610.77,1692,1709,5.23,0,0,0,0,1,0,
118,4110.77,4166.67,4077.95,3872.82,4357.44,4134.87,4600.51,4505.13,4307.69,3961.54,4284.62,4618.97,4329.23,4602.56,1691,1710,5.238,0,0,0,0,1,0,
119,4111.79,4169.74,4075.9,3867.69,4359.49,4141.03,4603.59,4510.77,4311.79,3956.92,4289.74,4617.44,4332.31,4603.08,1693,1710,5.246,0,0,0,0,1,0,
120,4112.31,4169.74,4078.97,3872.82,4362.05,4143.08,4606.15,4516.41,4315.38,3957.44,4292.31,4620,4329.23,4602.56,1691,1711,5.254,0,0,0,0,1,0,
121,4105.64,4169.23,4073.33,3869.74,4362.05,4139.49,4603.59,4509.74,4312.31,3953.85,4283.59,4617.44,4322.56,4595.9,1693,1711,5.261,0,0,0,0,1,0,
122,4101.54,4166.15,4063.59,3864.62,4356.92,4136.41,4598.46,4501.54,4306.15,3941.03,4281.03,4612.82,4319.49,4594.36,1692,1711,5.269,0,0,0,0,1,0,
123,4103.08,4159.49,4067.18,3867.69,4352.82,4136.41,4600.51,4506.15,4308.72,3937.95,4287.69,4614.36,4322.56,4597.95,1691,1713,5.277,0,0,0,0,1,0,
124,4107.18,4157.44,4075.9,3868.21,4354.87,4137.95,4603.08,4516.92,4318.97,3957.44,4291.79,4618.46,4327.18,4602.56,1691,1712,5.285,0,0,0,0,1,0,
125,4104.62,4159.49,4073.33,3863.59,4354.36,4136.92,4601.54,4514.36,4319.49,3964.62,4288.72,4616.41,4322.56,4599.49,1691,1713,5.293,0,0,0,0,1,0,
126,4098.97,4155.38,4067.18,3862.56,4346.15,4137.44,4601.03,4503.59,4308.21,3951.28,4284.62,4613.33,4312.31,4592.31,1691,1711,5.301,0,0,0,0,1,0,
127,4096.92,4150.26,4065.13,3862.56,4343.08,4140,4601.54,4502.05,4305.13,3944.1,4286.15,4613.33,4314.87,4589.74,1690,1711,5.308,0,0,0,0,1,0,
128,4101.54,4154.87,4066.67,3864.1,4349.74,4138.97,4601.03,4508.72,4310.77,3949.23,4296.41,4614.36,4325.64,4592.31,1691,1711,5.316,0,0,0,0,1,0,
0,4102.56,4158.46,4067.18,3864.62,4354.87,4135.38,4600.51,4507.69,4310.77,3954.87,4297.44,4613.85,4323.08,4593.33,1690,1712,5.324,0,0,0,0,1,0,
1,4099.49,4151.28,4064.1,3863.59,4354.87,4136.41,4597.95,4504.62,4310.26,3956.92,4291.28,4613.33,4314.36,4590.26,1691,1711,5.332,0,0,0,0,1,0,
2,4101.03,4154.87,4064.62,3864.62,4356.41,4140.51,4596.92,4506.67,4312.31,3959.49,4296.41,4615.38,4320,4592.82,1690,1711,5.34,0,0,0,0,1,0,
3,4104.1,4166.15,4068.72,3866.67,4354.87,4133.85,4596.41,4503.08,4309.23,3955.9,4301.03,4616.92,4326.67,4597.44,1691,1712,5.347,0,0,0,0,1,0,
4,4104.1,4161.03,4068.21,3865.13,4347.18,4125.64,4593.33,4496.92,4304.62,3944.62,4295.38,4617.44,4320.51,4600,1690,1710,5.356,0,0,0,0,1,0,
5,4103.59,4151.28,4069.74,3864.62,4345.64,4131.79,4593.33,4501.03,4308.72,3942.56,4293.33,4618.46,4320,4601.03,1691,1712,5.363,0,0,0,0,1,0,
6,4106.15,4154.87,4073.33,3864.1,4351.79,4139.49,4600,4506.15,4313.33,3954.36,4302.56,4618.46,4330.26,4601.03,1692,1711,5.371,0,0,0,0,1,0,
7,4107.69,4154.87,4071.28,3865.64,4354.36,4140,4602.56,4502.56,4309.23,3960.51,4306.67,4618.97,4333.33,4603.08,1691,1711,5.379,0,0,0,0,1,0,
8,4107.18,4152.82,4069.23,3864.1,4351.79,4142.56,4598.46,4502.05,4305.64,3952.82,4302.56,4616.92,4328.21,4600.51,1692,1710,5.387,0,0,0,0,1,0,
9,4115.38,4164.62,4074.36,3864.1,4355.9,4143.59,4598.97,4508.72,4309.74,3950.77,4306.15,4615.9,4333.33,4601.03,1691,1711,5.394,0,0,0,0,1,0,
10,4125.13,4173.85,4080,3872.82,4362.05,4138.46,4602.05,4510.26,4316.41,3956.41,4313.33,4621.03,4341.03,4607.18,1692,1711,5.402,0,0,0,0,1,0,
11,4120,4166.15,4076.41,3873.33,4351.79,4137.44,4599.49,4508.72,4317.95,3960,4310.26,4622.05,4339.49,4608.21,1692,1711,5.41,0,0,0,0,1,0,
12,4111.79,4164.1,4075.9,3868.72,4341.03,4137.95,4597.95,4507.69,4314.87,3962.05,4308.72,4616.41,4340,4604.62,1691,1710,5.418,0,0,0,0,1,0,
13,4118.46,4169.74,4082.56,3873.85,4346.15,4135.9,4599.49,4506.67,4316.92,3969.23,4313.33,4619.49,4348.21,4608.72,1691,1710,5.426,0,0,0,0,1,0,
14,4121.03,4162.56,4080.51,3874.36,4352.82,4136.92,4598.46,4507.18,4316.92,3972.82,4304.1,4623.08,4349.23,4611.28,1691,1709,5.433,0,0,0,0,1,0,
15,4112.31,4156.41,4072.31,3865.64,4350.77,4138.97,4598.46,4503.59,4308.21,3960.51,4294.87,4616.92,4341.54,4602.05,1691,1710,5.441,0,0,0,0,1,0,
16,4110.77,4164.1,4072.31,3862.56,4350.77,4138.97,4599.49,4501.54,4305.13,3950.77,4299.49,4614.87,4341.03,4596.92,1691,1710,5.449,0,0,0,0,1,0,
17,4110.77,4171.79,4072.82,3867.69,4354.36,4140,4593.85,4504.1,4311.28,3957.44,4296.92,4617.95,4337.95,4600,1690,1710,5.457,0,0,0,0,1,0,
18,4107.18,4169.23,4068.21,3871.28,4353.33,4140.51,4591.28,4504.1,4310.26,3955.9,4288.21,4615.9,4328.72,4600.51,1692,1711,5.465,0,0,0,0,1,0,
19,4114.87,4158.97,4072.31,3869.74,4351.28,4139.49,4600.51,4504.62,4310.26,3954.36,4300.51,4618.97,4340,4605.13,1690,1712,5.473,0,0,0,0,1,0,
20,4124.62,4158.46,4078.46,3869.74,4353.33,4143.08,4605.13,4509.23,4314.87,3966.67,4315.38,4623.59,4359.49,4612.82,1692,1710,5.48,0,0,0,0,1,0,
21,4117.95,4166.15,4075.9,3873.33,4353.85,4148.21,4600,4508.72,4311.79,3966.15,4305.13,4618.97,4355.9,4610.26,1691,1711,5.488,0,0,0,0,1,0,
22,4105.64,4161.03,4073.85,3869.74,4349.23,4150.26,4600.51,4504.62,4310.26,3954.87,4294.36,4615.38,4342.05,4603.59,1691,1712,5.496,0,0,0,0,1,0,
23,4107.18,4149.74,4074.36,3863.59,4346.67,4150.26,4603.08,4506.67,4315.38,3958.46,4297.44,4618.46,4340.51,4604.1,1691,1710,5.504,0,0,0,0,1,0,
24,4116.92,4153.33,4075.9,3864.1,4350.26,4143.08,4601.54,4508.72,4316.92,3970.26,4298.97,4623.59,4345.64,4607.18,1691,1711,5.512,0,0,0,0,1,0,
25,4119.49,4160,4077.95,3866.15,4348.72,4140.51,4600.51,4512.31,4321.54,3969.74,4299.49,4626.15,4348.72,4613.33,1691,1709,5.519,0,0,0,0,1,0,
26,4117.44,4157.95,4081.54,3870.26,4347.18,4148.72,4602.05,4519.49,4329.74,3971.28,4304.1,4627.18,4346.67,4616.92,1690,1711,5.527,0,0,0,0,1,0,
27,4118.46,4156.92,4080.51,3871.79,4350.26,4154.36,4603.59,4515.9,4321.03,3974.87,4304.1,4626.15,4345.13,4608.72,1691,1710,5.535,0,0,0,0,1,0,
28,4122.05,4161.03,4078.97,3870.26,4351.79,4153.33,4602.56,4504.62,4309.74,3968.72,4305.13,4626.15,4348.21,4606.15,1690,1710,5.543,0,0,0,0,1,0,
29,4122.05,4163.59,4080.51,3873.85,4353.33,4148.21,4601.54,4504.1,4314.36,3960.51,4306.15,4625.64,4345.64,4613.85,1690,1711,5.551,0,0,0,0,1,0,
30,4115.38,4157.44,4078.97,3872.82,4355.38,4143.59,4601.03,4508.21,4316.41,3958.97,4294.36,4622.05,4333.85,4611.28,1689,1711,5.559,0,0,0,0,1,0,
31,4107.18,4150.77,4072.82,3862.56,4351.28,4146.15,4597.95,4503.08,4307.18,3957.44,4285.13,4616.92,4327.18,4598.46,1690,1711,5.566,0,0,0,0,1,0,
32,4108.72,4153.33,4071.79,3861.03,4348.72,4150.77,4596.41,4501.03,4307.69,3953.33,4288.72,4614.87,4331.79,4597.44,1689,1711,5.574,0,0,0,0,1,0,
33,4118.46,4164.1,4076.41,3871.28,4354.87,4148.21,4598.97,4506.15,4313.85,3953.85,4297.44,4619.49,4336.41,4607.69,1690,1712,5.582,0,0,0,0,1,0,
34,4120,4167.69,4080,3873.85,4355.9,4147.18,4600.51,4507.69,4311.79,3955.9,4301.03,4621.54,4334.36,4609.23,1690,1710,5.59,0,0,0,0,1,0,
35,4116.41,4159.49,4077.44,3872.31,4349.23,4152.31,4600,4503.08,4308.72,3952.82,4290.26,4617.44,4328.21,4603.08,1689,1712,5.598,0,0,0,0,1,0,
36,4116.92,4157.95,4074.36,3872.82,4349.74,4153.85,4600,4502.05,4309.23,3953.33,4281.54,4615.9,4324.62,4603.59,1690,1710,5.606,0,0,0,0,1,0,
37,4123.59,4171.28,4083.59,3878.46,4355.38,4147.69,4597.44,4506.67,4312.82,3962.56,4293.85,4626.15,4335.9,4614.87,1689,1711,5.613,0,0,0,0,1,0,
38,4128.72,4176.41,4093.85,3883.08,4357.44,4142.56,4589.74,4503.08,4313.85,3964.62,4306.15,4631.28,4347.69,4622.56,1691,1711,5.621,0,0,0,0,1,0,
39,4122.56,4165.13,4085.13,3874.87,4354.87,4147.18,4585.64,4491.28,4302.56,3954.87,4297.95,4622.05,4339.49,4613.85,1690,1710,5.629,0,0,0,0,1,0,
40,4111.79,4156.41,4072.82,3865.64,4354.36,4153.33,4591.28,4489.74,4297.95,3953.85,4285.13,4615.38,4327.18,4603.59,1690,1711,5.637,0,0,0,0,1,0,
41,4107.69,4155.9,4074.87,3868.21,4354.36,4152.31,4599.49,4500.51,4308.21,3960,4284.1,4616.92,4330.26,4604.62,1690,1710,5.645,0,0,0,0,1,0,
42,4108.72,4157.44,4078.46,3871.28,4354.87,4154.36,4602.56,4506.15,4313.33,3961.54,4287.18,4617.95,4333.85,4608.21,1689,1711,5.652,0,0,0,0,1,0,
43,4106.15,4156.41,4070.26,3866.67,4353.33,4155.38,4601.03,4504.1,4308.72,3955.38,4282.05,4614.87,4326.15,4603.59,1689,1711,5.66,0,0,0,0,1,0,
44,4103.08,4151.28,4066.15,3863.08,4348.21,4153.33,4599.49,4503.08,4307.18,3948.72,4276.92,4614.87,4321.54,4598.46,1689,1712,5.668,0,0,0,0,1,0,
45,4104.62,4152.31,4073.85,3865.13,4348.72,4154.36,4601.54,4505.13,4308.72,3950.77,4281.03,4616.92,4326.67,4601.54,1690,1711,5.676,0,0,0,0,1,0,
46,4106.15,4157.95,4079.49,3871.79,4354.36,4155.38,4603.08,4506.15,4308.72,3961.03,4282.05,4617.95,4327.18,4606.15,1689,1711,5.684,0,0,0,0,1,0,
47,4106.67,4159.49,4075.38,3876.92,4353.33,4152.82,4603.08,4507.18,4311.79,3964.62,4277.44,4617.95,4323.59,4606.67,1690,1710,5.692,0,0,0,0,1,0,
48,4107.69,4156.41,4076.92,3875.9,4346.15,4152.82,4602.56,4508.72,4311.28,3958.97,4278.97,4618.46,4328.72,4610.26,1689,1710,5.699,0,0,0,0,1,0,
49,4107.69,4155.38,4083.59,3873.85,4342.56,4154.36,4601.54,4507.18,4308.21,3954.36,4283.59,4618.97,4332.31,4615.9,1691,1709,5.707,0,0,0,0,1,0,
50,4106.67,4153.33,4078.97,3868.21,4343.08,4151.79,4601.54,4506.15,4308.21,3955.38,4275.9,4617.95,4325.13,4609.74,1691,1707,5.715,0,0,0,0,1,0,
51,4105.13,4152.82,4072.31,3861.54,4345.13,4152.31,4602.56,4505.64,4309.23,3961.03,4267.18,4616.92,4325.13,4602.56,1692,1709,5.723,0,0,0,0,1,0,
52,4105.64,4156.41,4076.92,3865.64,4348.21,4155.9,4602.56,4504.1,4303.08,3956.92,4272.82,4618.97,4332.82,4608.72,1691,1709,5.731,0,0,0,0,1,0,
53,4107.18,4159.49,4080,3869.74,4350.77,4155.38,4599.49,4503.59,4298.97,3947.18,4271.79,4617.95,4330.77,4611.28,1692,1711,5.738,0,0,0,0,1,0,
54,4108.72,4156.92,4075.38,3864.1,4355.9,4154.36,4600,4503.59,4305.64,3950.26,4262.05,4617.44,4330.26,4607.69,1691,1711,5.746,0,0,0,0,1,0,
55,4103.59,4155.38,4075.9,3866.15,4354.36,4156.41,4603.08,4503.08,4304.62,3956.41,4263.59,4618.46,4333.33,4607.69,1692,1712,5.754,0,0,0,0,1,0,
56,4095.9,4153.85,4077.44,3870.77,4344.62,4154.87,4601.03,4503.08,4301.03,3957.95,4267.69,4618.46,4332.31,4606.67,1693,1711,5.762,0,0,0,0,1,0,
57,4096.92,4153.85,4074.36,3865.64,4342.05,4149.74,4597.95,4505.64,4313.85,3963.59,4263.08,4617.44,4330.26,4604.1,1691,1712,5.77,0,0,0,0,1,0,
58,4101.03,4154.87,4074.36,3863.08,4351.28,4157.44,4603.08,4513.85,4321.54,3969.74,4261.03,4617.95,4331.79,4604.62,1691,1712,5.778,0,0,0,0,1,0,
59,4098.46,4156.92,4074.87,3868.72,4356.92,4167.69,4607.69,4522.56,4314.36,3969.23,4265.13,4619.49,4331.28,4605.13,1689,1712,5.785,0,0,0,0,1,0,
60,4093.33,4158.46,4074.87,3870.26,4356.41,4162.56,4604.1,4520.51,4316.92,3963.59,4263.08,4616.92,4327.69,4604.1,1690,1712,5.793,0,0,0,0,1,0,
61,4096.92,4153.85,4074.87,3866.67,4355.9,4158.97,4601.54,4509.74,4320.51,3958.97,4257.95,4615.9,4326.15,4603.59,1689,1711,5.801,0,0,0,0,1,0,
62,4098.97,4149.23,4075.9,3865.64,4355.38,4166.67,4603.08,4506.15,4315.38,3962.05,4257.95,4618.97,4327.18,4605.13,1689,1713,5.809,0,0,0,0,1,0,
63,4095.9,4149.74,4074.87,3863.08,4356.92,4171.28,4603.08,4507.69,4316.92,3970.77,4261.03,4619.49,4328.21,4608.72,1690,1710,5.817,0,0,0,0,1,0,
64,4099.49,4154.36,4074.87,3869.23,4362.56,4170.26,4602.05,4512.82,4322.56,3973.33,4262.05,4620.51,4331.79,4612.31,1688,1710,5.825,0,0,0,0,1,0,
65,4106.67,4155.38,4075.9,3874.36,4366.15,4166.15,4601.03,4518.97,4322.05,3971.79,4264.1,4625.13,4338.46,4614.87,1689,1709,5.832,0,0,0,0,1,0,
66,4107.18,4155.38,4077.44,3869.23,4364.62,4163.08,4602.05,4522.56,4323.08,3971.79,4265.64,4628.72,4341.54,4616.92,1689,1709,5.84,0,0,0,0,1,0,
67,4104.62,4157.44,4080.51,3870.77,4361.54,4162.56,4602.05,4517.95,4323.08,3970.77,4263.08,4628.21,4338.97,4616.41,1690,1709,5.848,0,0,0,0,1,0,
68,4106.15,4157.95,4080.51,3874.36,4361.54,4161.54,4599.49,4511.28,4315.9,3966.15,4261.54,4625.13,4338.46,4616.41,1690,1711,5.856,0,0,0,0,1,0,
69,4107.69,4158.46,4082.56,3870.77,4364.1,4162.56,4603.59,4515.38,4316.41,3969.74,4266.67,4627.69,4341.54,4618.46,1691,1711,5.864,0,0,0,0,1,0,
70,4107.18,4158.97,4086.15,3870.77,4364.62,4170.26,4611.28,4522.05,4321.54,3977.44,4268.72,4632.31,4341.54,4617.95,1692,1712,5.871,0,0,0,0,1,0,
71,4104.1,4154.36,4082.56,3870.77,4362.56,4170.26,4608.21,4520.51,4323.08,3976.92,4258.46,4625.13,4335.38,4611.79,1692,1712,5.879,0,0,0,0,1,0,
72,4097.95,4152.31,4074.36,3863.08,4362.05,4165.13,4601.03,4518.97,4322.56,3970.26,4245.64,4613.85,4331.79,4605.13,1692,1712,5.887,0,0,0,0,1,0,
73,4095.38,4153.85,4069.74,3862.56,4366.15,4170.26,4602.56,4518.46,4322.05,3966.15,4247.69,4614.36,4334.36,4604.62,1692,1711,5.895,0,0,0,0,1,0,
74,4090.77,4147.18,4066.15,3866.67,4367.69,4174.36,4608.72,4513.33,4322.56,3967.18,4251.28,4617.44,4328.72,4602.05,1692,1712,5.903,0,0,0,0,1,0,
75,4084.62,4142.56,4062.05,3862.05,4365.13,4170.77,4606.15,4514.36,4319.49,3969.23,4243.08,4612.82,4320.51,4597.95,1692,1711,5.91,0,0,0,0,1,0,
76,4090.26,4154.36,4068.21,3861.03,4364.62,4167.69,4601.54,4521.03,4320.51,3975.9,4246.67,4614.36,4329.23,4607.69,1691,1712,5.918,0,0,0,0,1,0,
77,4103.08,4160.51,4077.95,3869.23,4364.1,4167.18,4603.08,4521.54,4327.18,3984.1,4261.54,4624.62,4339.49,4618.97,1692,1710,5.926,0,0,0,0,1,0,
78,4107.18,4153.85,4081.54,3873.85,4367.18,4171.79,4608.72,4523.08,4333.33,3987.69,4263.59,4631.79,4342.05,4620.51,1690,1711,5.934,0,0,0,0,1,0,
79,4106.67,4151.28,4081.03,3868.72,4370.26,4175.9,4613.33,4524.1,4329.23,3986.67,4257.44,4629.23,4348.72,4618.46,1691,1711,5.942,0,0,0,0,1,0,
80,4105.64,4152.82,4080,3861.54,4364.62,4173.33,4610.26,4517.44,4320.51,3978.46,4255.9,4624.62,4349.74,4616.41,1690,1710,5.95,0,0,0,0,1,0,
81,4108.21,4152.31,4084.1,3863.59,4360,4170.26,4607.69,4517.44,4322.56,3975.9,4264.1,4629.74,4348.72,4621.03,1690,1712,5.957,0,0,0,0,1,0,
82,4113.33,4160,4089.23,3871.79,4367.18,4172.31,4611.79,4525.64,4330.26,3985.13,4271.28,4634.87,4352.31,4626.67,1690,1711,5.965,0,0,0,0,1,0,
83,4109.74,4165.13,4085.64,3872.31,4370.26,4172.82,4612.31,4518.97,4325.64,3990.26,4261.03,4626.67,4345.64,4621.54,1689,1712,5.973,0,0,0,0,1,0,
84,4100,4158.46,4077.95,3869.23,4362.56,4171.28,4603.59,4509.23,4311.79,3976.41,4244.1,4616.41,4334.87,4613.85,1690,1712,5.981,0,0,0,0,1,0,
85,4101.54,4152.82,4074.36,3871.28,4362.05,4170.26,4599.49,4513.33,4312.31,3967.18,4246.15,4615.9,4339.49,4615.38,1690,1713,5.989,0,0,0,0,1,0,
86,4103.59,4154.87,4073.33,3870.26,4368.72,4170.77,4601.54,4514.87,4319.49,3976.92,4253.33,4618.46,4338.46,4616.92,1691,1712,5.997,0,0,0,0,1,0,
87,4100.51,4157.95,4073.33,3863.59,4370.26,4172.82,4599.49,4507.18,4315.9,3976.41,4248.72,4615.9,4329.23,4614.36,1690,1713,6.004,0,0,0,0,1,0,
88,4098.46,4158.46,4070.77,3864.62,4366.67,4172.82,4600,4505.64,4312.31,3963.08,4243.08,4614.36,4330.77,4613.33,1691,1712,6.012,0,0,0,0,1,0,
89,4094.87,4156.41,4066.15,3868.21,4365.13,4175.38,4603.08,4510.26,4316.41,3965.13,4241.54,4616.41,4332.82,4613.33,1689,1712,6.02,0,0,0,0,1,0,
90,4091.79,4152.31,4068.72,3865.64,4362.56,4180.51,4602.05,4506.15,4316.92,3976.41,4242.56,4616.41,4328.21,4613.33,1691,1712,6.028,0,0,0,0,1,0,
91,4096.41,4153.33,4073.33,3867.18,4359.49,4180,4602.05,4509.23,4318.97,3977.95,4248.21,4616.92,4333.85,4615.9,1690,1711,6.036,0,0,0,0,1,0,
92,4099.49,4157.44,4071.79,3867.69,4358.97,4174.87,4603.59,4520,4326.15,3976.41,4252.31,4618.97,4341.54,4618.46,1690,1712,6.043,0,0,0,0,1,0,
93,4091.79,4152.31,4068.21,3863.59,4357.95,4172.31,4603.08,4516.41,4322.05,3975.38,4248.21,4615.9,4334.87,4615.9,1691,1710,6.051,0,0,0,0,1,0,
94,4091.79,4146.67,4070.77,3861.54,4355.38,4171.79,4601.03,4505.64,4312.82,3971.79,4244.62,4614.87,4330.26,4613.85,1690,1712,6.059,0,0,0,0,1,0,
95,4101.54,4150.26,4074.36,3864.1,4353.33,4172.82,4601.54,4506.15,4312.82,3971.79,4252.31,4618.97,4337.44,4618.97,1691,1712,6.067,0,0,0,0,1,0,
96,4102.05,4155.38,4077.44,3867.18,4356.92,4174.87,4600,4508.72,4313.85,3973.85,4257.44,4619.49,4337.44,4621.03,1690,1712,6.075,0,0,0,0,1,0,
97,4093.33,4152.31,4075.38,3864.62,4360,4171.79,4596.41,4504.1,4312.31,3969.74,4243.59,4615.9,4325.64,4616.92,1690,1712,6.083,0,0,0,0,1,0,
98,4089.74,4150.77,4071.79,3862.56,4356.41,4168.72,4596.92,4505.13,4315.9,3964.62,4229.74,4615.9,4318.97,4614.36,1689,1713,6.09,0,0,0,0,1,0,
99,4091.28,4154.87,4073.33,3865.64,4349.74,4170.77,4598.97,4507.69,4315.38,3956.92,4235.9,4615.38,4323.08,4615.38,1690,1713,6.098,0,0,0,0,1,0,
100,4095.9,4153.85,4076.41,3865.64,4348.21,4171.79,4598.46,4504.62,4307.69,3951.79,4246.15,4617.44,4326.67,4618.97,1689,1712,6.106,0,0,0,0,1,0,
101,4100,4153.33,4075.38,3863.59,4352.31,4171.79,4600,4502.56,4306.67,3961.03,4249.74,4622.05,4327.18,4622.56,1690,1713,6.114,0,0,0,0,1,0,
102,4097.95,4155.38,4078.97,3865.13,4352.31,4170.77,4601.54,4509.23,4314.87,3970.26,4252.31,4622.56,4328.21,4620.51,1690,1712,6.122,0,0,0,0,1,0,
103,4095.38,4153.85,4083.59,3866.67,4348.72,4169.23,4598.46,4516.41,4322.05,3973.33,4251.79,4619.49,4331.28,4617.95,1690,1713,6.129,0,0,0,0,1,0,
104,4094.36,4151.79,4076.41,3864.1,4349.23,4175.38,4601.54,4514.87,4322.05,3974.36,4247.18,4617.95,4330.77,4618.97,1692,1711,6.137,0,0,0,0,1,0,
105,4089.23,4151.79,4070.26,3861.03,4353.85,4185.13,4611.28,4516.41,4322.56,3975.9,4244.1,4617.95,4325.64,4616.92,1691,1712,6.145,0,0,0,0,1,0,
106,4089.23,4150.77,4071.79,3860,4352.31,4180.51,4610.77,4520,4324.62,3980.51,4245.13,4616.41,4324.1,4615.38,1693,1710,6.153,0,0,0,0,1,0,
107,4092.31,4147.18,4068.72,3861.54,4346.15,4173.85,4600.51,4510.77,4316.92,3976.92,4246.15,4615.9,4328.21,4616.92,1691,1710,6.161,0,0,0,0,1,0,
108,4091.28,4148.72,4069.23,3863.59,4346.67,4180,4597.95,4503.08,4308.72,3968.21,4248.21,4615.9,4333.85,4617.44,1692,1711,6.169,0,0,0,0,1,0,
109,4090.26,4153.85,4074.36,3863.59,4349.74,4177.95,4602.05,4506.15,4313.33,3972.31,4248.21,4616.41,4333.85,4616.92,1691,1711,6.176,0,0,0,0,1,0,
110,4092.82,4153.33,4072.82,3863.08,4349.23,4168.21,4601.54,4510.26,4315.38,3977.95,4244.1,4616.92,4329.74,4619.49,1692,1711,6.184,0,0,0,0,1,0,
111,4093.33,4150.77,4072.82,3867.18,4352.82,4172.31,4599.49,4514.36,4314.87,3972.31,4244.1,4616.92,4331.28,4621.03,1690,1710,6.192,0,0,0,0,1,0,
112,4095.9,4157.44,4077.44,3868.21,4357.44,4178.46,4601.03,4516.92,4321.54,3975.9,4249.23,4617.44,4338.46,4622.05,1691,1712,6.2,0,0,0,0,1,0,
113,4101.03,4167.69,4076.41,3865.64,4357.44,4173.85,4601.03,4508.72,4318.97,3982.56,4249.23,4617.95,4340.51,4626.15,1691,1711,6.208,0,0,0,0,1,0,
114,4098.46,4165.64,4073.33,3865.13,4355.38,4169.23,4597.95,4503.08,4308.21,3974.87,4244.1,4612.31,4334.36,4625.13,1689,1713,6.215,0,0,0,0,1,0,
115,4091.79,4156.92,4070.77,3866.15,4355.9,4173.85,4596.92,4506.67,4310.26,3970.26,4243.59,4607.18,4329.74,4617.44,1690,1711,6.223,0,0,0,0,1,0,
116,4091.79,4153.85,4065.64,3863.59,4356.92,4179.49,4602.05,4508.21,4315.9,3971.79,4245.64,4610.26,4330.77,4613.85,1689,1712,6.231,0,0,0,0,1,0,
117,4089.23,4154.36,4064.62,3862.56,4352.82,4176.41,4601.54,4498.97,4309.74,3965.13,4240.51,4607.69,4330.26,4617.95,1690,1712,6.239,0,0,0,0,1,0,
118,4083.59,4151.79,4065.13,3864.1,4344.62,4168.72,4592.31,4493.33,4304.1,3960.51,4230.26,4602.05,4325.13,4616.92,1689,1711,6.247,0,0,0,0,1,0,
119,4084.62,4147.69,4064.1,3861.03,4345.64,4169.23,4588.72,4501.54,4309.23,3964.62,4233.33,4608.21,4323.08,4613.33,1690,1712,6.255,0,0,0,0,1,0,
120,4092.82,4154.87,4068.72,3860.51,4360,4178.97,4598.46,4508.21,4314.36,3969.74,4247.18,4616.92,4329.23,4622.56,1690,1711,6.262,0,0,0,0,1,0,
121,4102.05,4165.13,4074.87,3866.67,4366.67,4180.51,4601.54,4505.64,4316.92,3973.85,4249.74,4616.92,4340,4633.33,1690,1712,6.27,0,0,0,0,1,0,
122,4104.1,4163.08,4074.36,3868.21,4357.44,4171.79,4591.28,4504.1,4315.38,3973.85,4247.18,4614.36,4342.56,4629.23,1691,1712,6.278,0,0,0,0,1,0,
123,4096.41,4155.38,4068.21,3863.59,4351.28,4167.18,4590.26,4506.15,4311.28,3971.28,4249.23,4614.87,4334.36,4621.03,1691,1713,6.286,0,0,0,0,1,0,
124,4092.31,4156.41,4066.15,3863.08,4354.87,4173.33,4598.97,4503.59,4312.31,3972.31,4243.59,4611.79,4332.31,4620.51,1690,1713,6.294,0,0,0,0,1,0,
125,4093.33,4159.49,4068.21,3867.69,4356.92,4175.9,4602.56,4497.44,4311.79,3970.77,4232.31,4605.13,4331.28,4618.46,1690,1714,6.301,0,0,0,0,1,0,
126,4088.72,4152.82,4065.64,3864.1,4352.31,4171.28,4597.95,4496.41,4306.15,3960.51,4229.74,4600.51,4323.08,4614.36,1690,1713,6.309,0,0,0,0,1,0,
127,4087.18,4149.23,4065.13,3860.51,4353.85,4172.82,4598.46,4505.64,4309.74,3958.97,4234.87,4607.18,4324.1,4617.95,1691,1714,6.317,0,0,0,0,1,0,
128,4093.33,4154.36,4070.26,3865.64,4357.44,4175.38,4602.05,4507.69,4315.9,3965.64,4234.87,4613.33,4329.74,4620,1689,1714,6.325,0,0,0,0,1,0,
0,4088.21,4147.18,4067.18,3861.03,4348.72,4171.79,4592.31,4493.33,4305.13,3957.95,4230.77,4605.64,4322.56,4616.41,1690,1714,6.333,0,0,0,0,1,0,
1,4080,4137.95,4058.46,3851.79,4339.49,4167.69,4587.18,4487.69,4295.38,3944.1,4229.23,4597.95,4317.95,4614.36,1689,1714,6.341,0,0,0,0,1,0,
2,4085.64,4144.1,4062.56,3857.44,4345.64,4168.72,4593.85,4493.33,4301.54,3948.21,4231.79,4604.1,4327.69,4614.87,1691,1715,6.348,0,0,0,0,1,0,
3,4093.33,4148.72,4069.74,3864.1,4353.85,4172.31,4594.87,4494.36,4306.15,3960,4232.31,4610.26,4331.79,4618.46,1690,1714,6.356,0,0,0,0,1,0,
4,4090.77,4139.49,4063.59,3861.03,4350.26,4169.74,4593.33,4497.95,4308.21,3961.54,4230.77,4605.64,4325.64,4618.46,1689,1715,6.364,0,0,0,0,1,0,
5,4085.13,4135.9,4058.46,3858.46,4345.13,4168.21,4599.49,4502.05,4311.28,3954.87,4228.72,4598.97,4322.05,4614.36,1690,1713,6.372,0,0,0,0,1,0,
6,4083.59,4138.97,4061.03,3854.87,4344.62,4171.28,4597.95,4497.95,4305.64,3949.23,4222.56,4601.03,4319.49,4611.79,1688,1714,6.38,0,0,0,0,1,0,
7,4085.64,4135.9,4060,3847.18,4344.1,4169.23,4585.64,4493.85,4294.87,3943.08,4222.56,4602.56,4317.44,4613.33,1690,1714,6.387,0,0,0,0,1,0,
8,4090.77,4138.97,4060,3849.23,4345.64,4167.18,4584.62,4494.36,4293.85,3942.56,4230.77,4600,4320,4616.92,1689,1712,6.395,0,0,0,0,1,0,
9,4091.79,4143.59,4066.15,3859.49,4348.21,4168.72,4594.36,4498.46,4304.1,3950.26,4232.82,4604.62,4323.08,4617.95,1690,1713,6.403,0,0,0,0,1,0,
10,4090.26,4138.97,4068.72,3864.1,4349.74,4170.77,4601.54,4502.56,4311.28,3958.97,4229.23,4609.23,4323.59,4616.92,1690,1713,6.411,0,0,0,0,1,0,
11,4091.28,4143.59,4066.67,3862.56,4351.28,4171.28,4600.51,4500,4310.77,3961.54,4229.23,4604.1,4325.13,4616.41,1691,1713,6.419,0,0,0,0,1,0,
12,4092.82,4152.31,4066.15,3859.49,4352.31,4171.28,4595.9,4496.41,4307.69,3958.97,4233.85,4604.1,4329.74,4620.51,1691,1713,6.427,0,0,0,0,1,0,
13,4092.31,4146.15,4067.69,3861.54,4351.79,4171.28,4601.03,4505.13,4310.77,3958.46,4235.38,4611.79,4331.79,4623.08,1691,1714,6.434,0,0,0,0,1,0,
14,4094.87,4138.97,4069.74,3864.62,4349.23,4170.77,4602.56,4507.69,4313.85,3958.46,4232.82,4609.74,4329.74,4621.54,1692,1712,6.442,0,0,0,0,1,0,
15,4094.36,4139.49,4066.67,3856.92,4347.69,4169.23,4591.79,4499.49,4306.15,3955.9,4229.23,4601.03,4326.15,4620,1691,1713,6.45,0,0,0,0,1,0,
16,4091.79,4136.92,4062.56,3850.26,4350.26,4169.74,4591.79,4502.56,4303.08,3958.46,4232.31,4604.1,4328.21,4622.56,1692,1711,6.458,0,0,0,0,1,0,
17,4100,4140,4070.77,3861.54,4353.33,4173.33,4602.05,4508.72,4314.87,3967.69,4244.62,4614.87,4337.44,4629.74,1691,1713,6.466,0,0,0,0,1,0,
18,4107.18,4146.15,4076.41,3865.64,4353.85,4172.82,4601.03,4508.21,4322.05,3973.33,4248.72,4616.41,4342.56,4630.77,1692,1712,6.474,0,0,0,0,1,0,
19,4101.54,4140.51,4069.23,3854.36,4354.36,4169.74,4593.85,4503.59,4312.31,3970.77,4236.41,4611.79,4337.44,4627.18,1691,1711,6.481,0,0,0,0,1,0,
20,4100,4138.97,4069.23,3856.41,4357.95,4170.26,4595.9,4502.56,4309.23,3970.77,4233.85,4614.87,4335.38,4630.26,1691,1712,6.489,0,0,0,0,1,0,
21,4105.13,4143.08,4074.36,3867.18,4360,4172.31,4600,4507.18,4318.97,3972.82,4248.21,4617.44,4339.49,4632.31,1692,1711,6.497,0,0,0,0,1,0,
22,4102.56,4141.54,4069.74,3863.59,4359.49,4172.82,4597.95,4506.67,4322.56,3971.79,4249.23,4610.26,4337.44,4626.67,1691,1711,6.505,0,0,0,0,1,0,
23,4094.87,4140.51,4063.08,3857.44,4358.97,4171.28,4598.46,4504.62,4315.9,3972.82,4240.51,4604.1,4330.77,4621.03,1691,1711,6.513,0,0,0,0,1,0,
24,4091.28,4142.05,4064.62,3861.03,4358.46,4175.38,4601.54,4507.18,4312.82,3971.79,4248.21,4604.1,4329.23,4619.49,1690,1711,6.52,0,0,0,0,1,0,
25,4095.38,4141.54,4069.23,3864.1,4359.49,4180.51,4602.05,4508.21,4315.9,3971.28,4248.72,4606.67,4328.21,4622.56,1691,1709,6.528,0,0,0,0,1,0,
26,4097.44,4140.51,4066.67,3858.46,4360.51,4173.85,4592.82,4504.62,4316.92,3972.82,4232.31,4608.72,4328.21,4625.64,1690,1711,6.536,0,0,0,0,1,0,
27,4093.85,4138.97,4062.56,3854.36,4357.44,4165.64,4585.64,4503.59,4314.87,3965.64,4233.85,4605.64,4331.79,4624.1,1692,1710,6.544,0,0,0,0,1,0,
28,4093.85,4136.92,4066.15,3861.03,4354.87,4170.26,4590.77,4504.1,4312.31,3956.92,4245.64,4603.08,4332.31,4623.08,1690,1710,6.552,0,0,0,0,1,0,
29,4100,4138.46,4071.79,3865.13,4357.95,4173.85,4597.44,4505.64,4314.36,3966.67,4243.59,4610.77,4330.77,4628.72,1691,1710,6.56,0,0,0,0,1,0,
30,4103.08,4138.46,4071.28,3861.03,4359.49,4169.74,4595.38,4509.23,4318.97,3976.92,4244.1,4617.95,4332.82,4633.33,1690,1709,6.567,0,0,0,0,1,0,
31,4103.08,4137.44,4070.77,3862.05,4357.44,4169.74,4588.21,4508.21,4315.9,3969.74,4247.69,4614.36,4333.85,4629.74,1690,1711,6.575,0,0,0,0,1,0,
32,4104.1,4138.97,4073.85,3865.64,4355.38,4170.77,4587.18,4506.15,4311.28,3967.18,4238.97,4614.36,4332.31,4628.72,1690,1710,6.583,0,0,0,0,1,0,
33,4104.62,4139.49,4073.85,3863.08,4355.9,4169.23,4596.41,4508.72,4314.36,3970.77,4230.77,4614.87,4329.74,4630.26,1690,1711,6.591,0,0,0,0,1,0,
34,4103.59,4138.46,4071.28,3860.51,4357.44,4174.36,4602.56,4509.74,4319.49,3965.13,4234.36,4610.26,4328.21,4628.21,1691,1711,6.599,0,0,0,0,1,0,
35,4099.49,4135.38,4068.21,3861.03,4356.92,4184.1,4600,4507.69,4316.41,3956.92,4233.33,4606.67,4323.59,4623.08,1690,1711,6.606,0,0,0,0,1,0,
36,4091.79,4134.36,4066.15,3863.59,4362.05,4180.51,4600,4504.1,4310.26,3954.87,4229.23,4605.13,4323.08,4619.49,1691,1711,6.614,0,0,0,0,1,0,
37,4093.85,4142.56,4069.74,3865.64,4368.21,4175.38,4602.05,4501.03,4306.15,3956.92,4231.28,4604.62,4330.77,4619.49,1690,1710,6.622,0,0,0,0,1,0,
38,4101.54,4148.21,4069.23,3865.64,4365.64,4182.56,4600,4501.03,4306.67,3958.46,4230.77,4605.64,4331.79,4623.59,1692,1710,6.63,0,0,0,0,1,0,
39,4106.67,4147.69,4069.74,3864.62,4364.62,4186.67,4600.51,4504.1,4310.77,3959.49,4235.38,4611.79,4330.26,4631.79,1690,1710,6.638,0,0,0,0,1,0,
40,4108.21,4151.28,4074.87,3866.67,4368.21,4183.08,4603.08,4509.23,4318.46,3963.59,4246.67,4618.46,4338.97,4633.85,1691,1710,6.646,0,0,0,0,1,0,
41,4107.18,4155.9,4076.41,3868.21,4367.18,4181.54,4603.59,4511.79,4323.08,3971.79,4243.59,4616.92,4342.05,4630.26,1691,1708,6.653,0,0,0,0,1,0,
42,4103.08,4153.85,4070.77,3867.18,4363.59,4176.92,4602.05,4508.72,4315.9,3977.44,4229.23,4610.26,4332.31,4630.26,1690,1710,6.661,0,0,0,0,1,0,
43,4100,4149.23,4066.15,3863.08,4363.59,4168.72,4597.95,4504.1,4308.21,3971.79,4227.18,4607.18,4332.31,4630.77,1690,1709,6.669,0,0,0,0,1,0,
