eeg data - format version 0.2: COUNTER,AF3,F7,F3, FC5, T7, P7, O1, O2,P8, T8, FC6, F4,F8, AF4,GYROX, GYROY, TIMESTAMP, FUNC_ID, FUNC_VALUE, MARKER, SYNC_SIGNAL, Cognitiv Action, Cognitiv Power,
72,4016.41,4080,3818.46,3846.67,4344.62,4107.69,4569.23,4630.26,4276.92,3849.74,4207.18,4584.62,4172.31,4718.46,1704,1704,0.111,0,0,0,0,1,0,
73,4014.36,4070.77,3818.97,3846.15,4338.97,4109.23,4568.21,4624.62,4277.44,3841.03,4212.31,4585.13,4172.31,4716.41,1706,1701,0.127,0,0,0,0,1,0,
74,4010.26,4061.54,3815.38,3835.38,4330.26,4112.31,4567.69,4629.23,4284.62,3851.28,4215.38,4583.08,4169.23,4716.92,1707,1697,0.129,0,0,0,0,1,0,
75,4011.79,4068.21,3815.9,3837.95,4327.69,4107.69,4568.21,4631.79,4287.69,3866.15,4213.33,4584.62,4174.36,4718.46,1708,1693,0.135,0,0,0,0,1,0,
76,4019.49,4073.85,3821.03,3847.69,4330.77,4098.46,4566.67,4629.23,4291.28,3865.64,4216.92,4586.15,4186.15,4718.46,1708,1688,0.142,0,0,0,0,1,0,
77,4022.05,4077.95,3828.21,3848.21,4332.82,4101.03,4565.64,4636.41,4295.9,3863.08,4225.64,4587.69,4189.74,4720,1706,1685,0.15,0,0,0,0,1,0,
78,4019.49,4085.64,3832.82,3846.67,4330.26,4105.64,4567.69,4652.82,4301.03,3872.31,4226.15,4592.31,4187.18,4720.51,1705,1688,0.158,0,0,0,0,1,0,
79,4020.51,4090.26,3828.21,3850.26,4331.79,4101.03,4570.26,4659.49,4300.51,3878.97,4221.03,4591.28,4190.26,4719.49,1704,1696,0.165,0,0,0,0,1,0,
80,4015.9,4087.18,3818.46,3843.08,4328.72,4096.92,4569.23,4647.69,4287.18,3870.77,4216.41,4586.15,4189.74,4717.95,1702,1702,0.173,0,0,0,0,1,0,
81,4009.23,4076.41,3812.82,3830.77,4315.9,4097.95,4561.54,4635.9,4274.87,3856.92,4214.87,4584.62,4183.08,4715.9,1701,1709,0.182,0,0,0,0,1,0,
82,4011.79,4069.23,3821.03,3836.41,4317.44,4102.05,4557.44,4633.85,4279.49,3852.31,4218.97,4586.15,4185.13,4718.97,1700,1714,0.19,0,0,0,0,1,0,
83,4013.85,4073.85,3827.69,3841.03,4330.77,4107.69,4561.03,4633.33,4283.08,3855.38,4218.97,4585.64,4187.18,4720,1699,1718,0.211,0,0,0,0,1,0,
84,4008.21,4084.62,3818.46,3833.33,4328.21,4104.1,4558.46,4626.15,4277.44,3852.31,4206.15,4582.05,4173.33,4711.79,1697,1719,0.221,0,0,0,0,1,0,
85,4015.9,4093.85,3816.92,3836.41,4319.49,4098.46,4552.31,4615.9,4273.85,3846.15,4201.03,4580.51,4165.13,4713.85,1696,1720,0.23,0,0,0,0,1,0,
86,4034.87,4102.05,3830.26,3849.23,4320.51,4100,4554.87,4614.36,4276.92,3843.59,4211.28,4582.56,4178.46,4729.23,1696,1718,0.231,0,0,0,0,1,0,
87,4045.64,4103.08,3836.41,3849.23,4318.46,4096.41,4556.92,4618.46,4282.56,3849.74,4218.46,4592.31,4192.82,4741.03,1695,1720,0.233,0,0,0,0,1,0,
88,4051.28,4105.64,3836.41,3843.08,4305.64,4090.77,4550.77,4620.51,4283.08,3860,4219.49,4601.03,4198.97,4746.67,1696,1721,0.238,0,0,0,0,1,0,
89,4063.59,4121.03,3846.15,3845.64,4301.54,4090.77,4548.72,4620,4280.51,3861.03,4221.54,4602.05,4208.72,4755.38,1694,1724,0.244,0,0,0,0,1,0,
90,4075.38,4131.79,3852.82,3853.85,4308.72,4087.69,4553.85,4620.51,4281.54,3856.92,4227.69,4604.62,4224.1,4766.67,1694,1727,0.252,0,0,0,0,1,0,
91,4075.38,4134.36,3848.72,3855.9,4305.64,4082.56,4548.21,4613.85,4274.87,3852.31,4231.28,4602.56,4227.69,4767.69,1692,1732,0.259,0,0,0,0,1,0,
92,4069.23,4137.44,3847.69,3855.38,4299.49,4083.59,4538.46,4605.13,4265.64,3840.51,4224.1,4591.79,4218.97,4756.92,1690,1734,0.267,0,0,0,0,1,0,
93,4066.67,4137.95,3850.26,3860,4310.26,4089.23,4542.56,4606.67,4266.67,3831.28,4213.33,4590.77,4214.87,4749.74,1687,1735,0.275,0,0,0,0,1,0,
94,4062.56,4134.36,3848.21,3854.36,4320,4091.79,4553.33,4608.72,4267.69,3838.97,4213.33,4594.36,4213.33,4748.72,1686,1734,0.283,0,0,0,0,1,0,
95,4057.95,4133.85,3848.21,3847.69,4315.38,4092.31,4555.9,4609.74,4269.74,3849.23,4217.44,4588.21,4208.21,4745.64,1685,1729,0.297,0,0,0,0,1,0,
96,4056.41,4136.92,3851.28,3857.44,4311.28,4090.26,4554.36,4614.36,4277.44,3851.28,4214.36,4586.67,4209.74,4745.13,1684,1726,0.302,0,0,0,0,1,0,
97,4056.41,4138.46,3854.87,3859.49,4315.38,4091.28,4553.85,4616.41,4281.03,3857.95,4214.36,4596.41,4216.41,4748.72,1685,1721,0.306,0,0,0,0,1,0,
98,4056.41,4133.33,3860.51,3849.74,4321.03,4097.95,4555.9,4621.03,4284.1,3869.23,4223.08,4600,4217.44,4749.74,1683,1719,0.315,0,0,0,0,1,0,
99,4059.49,4133.33,3865.13,3856.92,4327.69,4099.49,4555.9,4633.33,4289.23,3874.87,4232.82,4598.46,4216.41,4749.74,1686,1716,0.322,0,0,0,0,1,0,
100,4060.51,4142.56,3866.67,3869.23,4327.18,4099.49,4555.38,4630.77,4285.64,3869.74,4233.85,4602.05,4219.49,4751.28,1686,1713,0.33,0,0,0,0,1,0,
101,4058.46,4142.56,3866.15,3860.51,4320,4102.05,4561.03,4616.41,4278.46,3863.59,4231.28,4603.59,4221.54,4751.28,1687,1712,0.337,0,0,0,0,1,0,
102,4051.79,4137.44,3860.51,3850.26,4314.36,4098.97,4561.03,4616.92,4274.36,3862.05,4224.1,4593.85,4211.28,4741.54,1687,1708,0.352,0,0,0,0,1,0,
103,4042.56,4138.97,3854.87,3857.95,4308.72,4094.36,4554.87,4615.9,4265.64,3849.23,4212.31,4581.03,4198.46,4730.77,1685,1708,0.355,0,0,0,0,1,0,
104,4047.69,4143.59,3860.51,3865.64,4317.44,4096.41,4560.51,4614.87,4269.23,3838.46,4216.41,4586.15,4206.15,4736.41,1685,1705,0.362,0,0,0,0,1,0,
105,4066.15,4148.21,3874.87,3858.97,4340,4098.97,4574.36,4637.44,4289.74,3859.49,4235.9,4604.62,4228.72,4752.31,1683,1702,0.372,0,0,0,0,1,0,
106,4070.26,4151.28,3882.56,3854.87,4343.59,4099.49,4572.82,4653.33,4298.46,3884.62,4242.05,4612.82,4235.38,4757.95,1682,1698,0.377,0,0,0,0,1,0,
107,4060,4154.87,3882.05,3866.67,4332.82,4102.05,4557.95,4640.51,4292.82,3882.56,4234.87,4607.18,4231.28,4752.31,1680,1696,0.384,0,0,0,0,1,0,
108,4060.51,4156.41,3882.56,3866.15,4335.9,4103.08,4558.97,4633.33,4294.36,3877.95,4236.92,4601.54,4240,4751.79,1681,1694,0.392,0,0,0,0,1,0,
109,4060.51,4150.26,3882.56,3846.67,4337.44,4106.15,4567.69,4640.51,4297.95,3884.62,4236.92,4600.51,4243.59,4751.79,1680,1693,0.4,0,0,0,0,1,0,
110,4044.1,4151.79,3871.79,3848.21,4327.18,4107.69,4563.08,4636.92,4289.23,3879.49,4225.13,4593.85,4227.18,4741.54,1682,1694,0.408,0,0,0,0,1,0,
111,4036.92,4164.1,3864.1,3861.54,4328.72,4103.08,4557.95,4628.21,4277.44,3862.05,4219.49,4583.59,4213.33,4730.77,1682,1695,0.416,0,0,0,0,1,0,
112,4047.69,4169.23,3874.36,3854.87,4342.56,4105.64,4568.72,4629.74,4276.41,3853.33,4222.05,4582.56,4215.38,4731.79,1684,1697,0.424,0,0,0,0,1,0,
113,4055.38,4170.77,3885.13,3848.21,4349.23,4115.38,4578.46,4636.92,4282.05,3855.9,4222.56,4590.77,4222.56,4740,1686,1697,0.431,0,0,0,0,1,0,
114,4047.69,4168.72,3875.9,3865.64,4331.79,4106.15,4568.72,4632.82,4277.44,3847.69,4215.9,4588.72,4212.82,4733.85,1689,1699,0.439,0,0,0,0,1,0,
115,4037.44,4161.03,3861.54,3869.74,4312.31,4092.82,4560,4622.05,4271.28,3840.51,4212.31,4577.95,4196.92,4722.56,1692,1699,0.447,0,0,0,0,1,0,
116,4044.1,4167.69,3870.77,3847.69,4326.67,4104.62,4568.72,4629.23,4284.62,3861.03,4221.54,4584.62,4208.21,4730.77,1694,1703,0.455,0,0,0,0,1,0,
117,4059.49,4186.15,3885.13,3843.59,4355.9,4118.97,4577.95,4642.56,4303.08,3876.92,4234.36,4600,4235.38,4744.1,1694,1708,0.463,0,0,0,0,1,0,
118,4056.92,4188.21,3884.1,3857.95,4358.97,4111.28,4574.87,4639.49,4299.49,3871.28,4236.92,4594.36,4236.41,4738.46,1692,1714,0.471,0,0,0,0,1,0,
119,4046.15,4180.51,3885.64,3864.62,4349.74,4101.03,4575.9,4638.46,4291.79,3877.44,4232.31,4587.69,4227.69,4731.79,1691,1718,0.478,0,0,0,0,1,0,
120,4050.77,4186.67,3892.31,3865.13,4356.41,4111.79,4586.67,4644.1,4299.49,3889.23,4235.9,4600,4236.41,4737.95,1685,1722,0.486,0,0,0,0,1,0,
121,4053.85,4195.38,3886.15,3864.62,4364.1,4122.56,4585.64,4636.41,4297.44,3874.87,4236.92,4597.95,4237.44,4736.92,1683,1725,0.498,0,0,0,0,1,0,
122,4047.69,4198.46,3877.44,3863.08,4358.97,4115.38,4580,4627.18,4281.54,3861.03,4226.67,4583.59,4223.08,4731.28,1678,1724,0.503,0,0,0,0,1,0,
123,4046.15,4194.87,3881.54,3865.13,4354.36,4110.77,4585.13,4634.36,4282.05,3863.08,4225.13,4586.15,4215.9,4732.82,1674,1724,0.511,0,0,0,0,1,0,
124,4048.21,4196.92,3889.74,3867.18,4361.54,4115.38,4586.15,4641.03,4294.36,3859.49,4231.28,4590.26,4216.41,4733.85,1672,1722,0.518,0,0,0,0,1,0,
125,4050.77,4209.74,3889.74,3861.54,4367.18,4119.49,4577.44,4635.9,4291.79,3858.97,4224.1,4586.15,4216.41,4733.85,1669,1722,0.525,0,0,0,0,1,0,
126,4056.92,4214.36,3887.69,3864.1,4363.08,4118.46,4570.26,4631.79,4286.67,3864.62,4219.49,4586.67,4215.38,4734.36,1669,1722,0.534,0,0,0,0,1,0,
127,4061.54,4218.46,3890.77,3873.85,4363.59,4114.36,4569.74,4630.77,4291.79,3865.64,4230.77,4589.23,4217.95,4734.36,1668,1720,0.541,0,0,0,0,1,0,
128,4058.97,4228.72,3890.77,3873.33,4367.18,4110.26,4567.18,4626.67,4288.72,3866.15,4230.26,4586.67,4221.03,4735.38,1667,1719,0.549,0,0,0,0,1,0,
0,4055.9,4231.28,3880,3873.33,4368.21,4108.21,4564.62,4626.67,4283.08,3874.36,4219.49,4586.15,4217.95,4735.38,1666,1716,0.557,0,0,0,0,1,0,
1,4058.97,4229.23,3877.95,3882.05,4369.23,4107.18,4568.72,4633.85,4286.15,3874.87,4221.03,4586.67,4208.72,4730.26,1665,1704,0.564,0,0,0,0,1,0,
2,4061.54,4233.85,3889.23,3884.1,4373.85,4110.77,4572.82,4636.41,4285.64,3862.05,4222.56,4587.18,4202.05,4723.59,1666,1699,0.572,0,0,0,0,1,0,
3,4059.49,4236.92,3894.36,3878.46,4374.87,4116.92,4569.74,4629.74,4278.97,3849.74,4211.28,4588.21,4196.92,4722.56,1668,1693,0.58,0,0,0,0,1,0,
4,4060.51,4232.82,3895.9,3881.03,4369.23,4109.74,4568.21,4626.67,4273.33,3840,4207.69,4588.72,4191.28,4725.64,1669,1690,0.588,0,0,0,0,1,0,
5,4064.1,4231.28,3897.44,3885.64,4366.15,4098.97,4568.72,4625.13,4267.69,3831.28,4214.36,4589.74,4192.31,4729.23,1670,1687,0.596,0,0,0,0,1,0,
6,4058.97,4232.31,3896.41,3876.92,4365.13,4102.05,4560.51,4615.9,4263.08,3825.13,4210.26,4586.67,4187.18,4724.1,1672,1687,0.604,0,0,0,0,1,0,
7,4052.31,4231.79,3894.87,3869.23,4364.62,4112.82,4560,4609.74,4264.1,3826.67,4200,4583.08,4182.05,4718.46,1675,1687,0.612,0,0,0,0,1,0,
8,4052.82,4232.82,3891.79,3874.87,4364.62,4116.92,4565.13,4611.28,4266.15,3834.36,4201.03,4582.05,4191.28,4718.46,1676,1689,0.619,0,0,0,0,1,0,
9,4052.31,4232.31,3890.77,3882.05,4360,4113.85,4561.03,4611.79,4266.67,3844.62,4208.21,4581.03,4201.03,4716.92,1680,1690,0.627,0,0,0,0,1,0,
10,4051.79,4233.33,3892.82,3879.49,4364.1,4113.85,4559.49,4615.38,4271.79,3855.38,4217.95,4581.03,4206.15,4720,1680,1692,0.635,0,0,0,0,1,0,
11,4058.46,4242.05,3896.92,3877.95,4384.1,4122.05,4563.59,4623.59,4282.56,3860.51,4228.72,4585.64,4218.97,4731.79,1683,1696,0.643,0,0,0,0,1,0,
12,4064.62,4248.72,3903.08,3886.67,4392.82,4123.59,4559.49,4625.64,4285.13,3863.59,4230.77,4588.72,4225.13,4736.92,1683,1695,0.65,0,0,0,0,1,0,
13,4061.03,4241.03,3906.67,3890.77,4380.51,4117.44,4550.26,4620,4277.44,3861.54,4227.18,4586.15,4215.9,4732.31,1683,1699,0.658,0,0,0,0,1,0,
14,4061.54,4233.85,3906.67,3884.62,4376.92,4122.05,4555.9,4618.97,4276.41,3854.87,4231.28,4587.18,4217.95,4731.79,1684,1700,0.666,0,0,0,0,1,0,
15,4065.13,4235.9,3909.23,3880.51,4380.51,4129.74,4566.15,4626.67,4286.15,3858.46,4233.33,4589.23,4228.21,4732.82,1685,1701,0.674,0,0,0,0,1,0,
16,4058.97,4228.21,3910.26,3875.38,4370.77,4125.64,4569.74,4631.28,4289.74,3855.38,4225.64,4587.69,4223.08,4724.1,1686,1702,0.682,0,0,0,0,1,0,
17,4052.82,4217.95,3903.08,3867.69,4369.23,4121.54,4568.21,4626.15,4283.08,3841.54,4221.03,4586.15,4211.79,4718.97,1688,1704,0.69,0,0,0,0,1,0,
18,4048.72,4213.85,3895.38,3867.69,4377.44,4125.13,4566.67,4618.97,4276.92,3837.44,4216.92,4580,4202.05,4717.44,1691,1705,0.697,0,0,0,0,1,0,
19,4036.92,4205.13,3892.82,3869.74,4368.21,4127.18,4569.23,4610.77,4272.82,3839.49,4212.31,4570.26,4194.36,4706.67,1692,1707,0.705,0,0,0,0,1,0,
20,4029.23,4205.64,3891.79,3869.23,4361.54,4124.62,4567.18,4603.59,4263.08,3832.82,4215.38,4565.64,4196.92,4700,1693,1709,0.713,0,0,0,0,1,0,
21,4038.46,4214.36,3893.85,3873.85,4370.77,4124.1,4566.15,4606.15,4256.92,3834.36,4223.08,4571.28,4208.21,4709.74,1692,1710,0.721,0,0,0,0,1,0,
22,4050.77,4222.05,3901.03,3882.56,4375.38,4122.05,4568.72,4613.85,4268.21,3853.85,4231.28,4582.56,4219.49,4721.03,1691,1712,0.729,0,0,0,0,1,0,
23,4053.33,4227.69,3909.74,3878.97,4375.9,4122.05,4570.77,4615.38,4281.03,3863.59,4238.46,4586.67,4226.67,4721.03,1690,1711,0.736,0,0,0,0,1,0,
24,4051.79,4226.15,3909.23,3867.18,4373.33,4125.13,4570.26,4615.9,4281.03,3862.05,4238.97,4584.62,4230.26,4717.95,1688,1712,0.744,0,0,0,0,1,0,
25,4053.33,4221.03,3907.69,3870.77,4358.97,4124.62,4568.72,4623.08,4285.64,3869.74,4241.03,4585.64,4237.95,4722.56,1688,1711,0.757,0,0,0,0,1,0,
26,4056.41,4222.56,3911.28,3876.92,4358.46,4121.03,4570.26,4629.74,4293.33,3878.46,4248.72,4588.72,4240,4729.74,1685,1713,0.76,0,0,0,0,1,0,
27,4055.38,4226.67,3914.87,3873.85,4370.26,4122.05,4571.79,4630.77,4290.26,3865.64,4243.59,4588.21,4225.64,4726.15,1685,1715,0.768,0,0,0,0,1,0,
28,4049.23,4215.9,3911.79,3871.79,4352.82,4126.15,4570.77,4624.62,4278.97,3843.59,4229.74,4584.62,4215.9,4715.9,1684,1715,0.776,0,0,0,0,1,0,
29,4043.59,4204.62,3907.18,3873.85,4339.49,4124.62,4566.67,4617.95,4268.72,3843.08,4226.67,4580.51,4222.05,4714.36,1685,1717,0.783,0,0,0,0,1,0,
30,4041.03,4209.74,3908.21,3868.21,4365.64,4123.08,4572.82,4615.38,4267.69,3853.85,4228.72,4580,4214.36,4717.44,1685,1718,0.791,0,0,0,0,1,0,
31,4041.03,4211.28,3910.26,3862.56,4377.44,4125.13,4581.03,4613.85,4273.85,3854.36,4226.15,4584.62,4203.08,4714.87,1687,1719,0.802,0,0,0,0,1,0,
32,4042.56,4197.95,3908.72,3865.64,4357.95,4126.15,4575.9,4615.38,4277.95,3862.56,4237.95,4584.62,4225.64,4713.85,1685,1719,0.807,0,0,0,0,1,0,
33,4045.13,4186.67,3907.18,3864.62,4349.23,4128.21,4572.82,4620,4281.54,3881.03,4262.05,4583.08,4262.56,4721.54,1685,1720,0.815,0,0,0,0,1,0,
34,4048.21,4179.49,3908.72,3856.92,4352.82,4126.15,4573.33,4623.08,4289.74,3892.31,4276.92,4590.26,4283.59,4731.79,1683,1719,0.823,0,0,0,0,1,0,
35,4057.44,4168.21,3918.97,3855.38,4348.21,4125.13,4574.87,4628.21,4301.03,3903.59,4289.23,4604.62,4303.08,4742.05,1682,1721,0.83,0,0,0,0,1,0,
36,4069.23,4163.08,3931.28,3859.49,4345.13,4130.77,4580,4641.54,4310.77,3921.54,4303.59,4614.87,4329.74,4756.41,1683,1720,0.838,0,0,0,0,1,0,
37,4073.85,4159.49,3935.38,3855.9,4348.21,4131.79,4587.18,4651.28,4316.41,3930.26,4312.82,4617.44,4347.18,4766.67,1681,1721,0.846,0,0,0,0,1,0,
38,4073.85,4146.67,3937.44,3850.77,4344.62,4127.18,4587.69,4648.72,4317.44,3931.79,4322.56,4621.03,4363.59,4768.72,1682,1721,0.858,0,0,0,0,1,0,
39,4072.82,4133.33,3937.95,3849.23,4335.9,4130.77,4583.59,4645.13,4317.44,3937.44,4327.69,4620.51,4380.51,4767.18,1682,1720,0.863,0,0,0,0,1,0,
40,4067.18,4122.05,3930.77,3838.97,4335.38,4137.44,4590.26,4645.13,4315.38,3950.26,4325.13,4615.38,4385.64,4766.67,1684,1720,0.869,0,0,0,0,1,0,
41,4066.67,4120.51,3932.82,3832.82,4344.62,4135.9,4598.46,4645.64,4314.36,3963.59,4337.44,4620.51,4395.9,4768.72,1684,1720,0.877,0,0,0,0,1,0,
42,4070.77,4118.97,3942.56,3837.95,4342.56,4136.92,4595.38,4643.59,4317.95,3963.08,4348.21,4629.23,4412.82,4770.26,1685,1719,0.885,0,0,0,0,1,0,
43,4069.74,4107.69,3940.51,3838.46,4330.77,4137.95,4590.26,4642.05,4318.97,3961.54,4341.03,4629.23,4423.59,4773.33,1685,1720,0.894,0,0,0,0,1,0,
44,4070.26,4103.59,3937.44,3832.82,4329.23,4136.92,4594.87,4647.69,4322.56,3982.56,4347.18,4631.28,4440,4778.97,1685,1722,0.901,0,0,0,0,1,0,
45,4077.95,4107.18,3945.64,3837.95,4333.85,4139.49,4601.03,4661.03,4338.46,4006.67,4367.69,4638.97,4462.05,4784.62,1685,1721,0.909,0,0,0,0,1,0,
46,4080.51,4099.49,3951.79,3845.13,4332.82,4138.46,4597.95,4667.18,4349.23,4004.1,4373.85,4642.56,4470.77,4787.69,1682,1724,0.916,0,0,0,0,1,0,
47,4076.92,4088.72,3953.85,3841.54,4328.72,4136.92,4593.33,4661.03,4341.03,3997.44,4373.33,4645.13,4473.85,4793.85,1685,1722,0.924,0,0,0,0,1,0,
48,4081.54,4089.74,3957.95,3834.87,4327.18,4139.49,4593.85,4659.49,4338.97,4012.82,4377.95,4649.23,4487.18,4798.97,1683,1723,0.932,0,0,0,0,1,0,
49,4087.18,4089.74,3960,3834.36,4330.26,4141.03,4601.03,4665.64,4348.21,4025.64,4380.51,4650.26,4495.9,4799.49,1685,1721,0.94,0,0,0,0,1,0,
50,4083.08,4077.44,3959.49,3836.41,4334.36,4141.54,4605.13,4665.13,4345.64,4019.49,4380.51,4649.23,4494.87,4798.46,1685,1720,0.948,0,0,0,0,1,0,
51,4079.49,4064.62,3959.49,3831.79,4330.26,4142.05,4601.54,4662.56,4338.97,4018.46,4381.54,4648.72,4498.97,4797.95,1686,1720,0.956,0,0,0,0,1,0,
52,4081.03,4057.44,3964.1,3832.31,4321.54,4140.51,4601.54,4667.69,4342.05,4026.15,4382.56,4653.85,4506.15,4801.03,1688,1718,0.963,0,0,0,0,1,0,
53,4081.03,4054.36,3971.28,3835.9,4323.59,4137.95,4601.03,4669.74,4346.15,4028.21,4388.21,4659.49,4510.77,4802.56,1689,1717,0.971,0,0,0,0,1,0,
54,4080.51,4051.79,3971.79,3832.82,4331.28,4137.95,4600.51,4663.59,4345.13,4028.72,4393.33,4656.92,4513.33,4799.49,1691,1715,0.98,0,0,0,0,1,0,
55,4077.44,4044.62,3963.59,3830.77,4328.21,4139.49,4600.51,4658.46,4343.59,4027.18,4388.21,4649.23,4512.82,4796.92,1693,1715,0.987,0,0,0,0,1,0,
56,4066.15,4036.92,3956.41,3828.21,4321.54,4140,4598.46,4657.95,4344.62,4025.13,4378.46,4645.13,4505.64,4793.85,1695,1711,0.995,0,0,0,0,1,0,
57,4063.08,4035.9,3955.9,3828.72,4322.56,4138.97,4599.49,4663.08,4349.23,4028.72,4380,4644.62,4505.13,4793.33,1696,1711,1.002,0,0,0,0,1,0,
58,4071.79,4044.1,3957.44,3831.28,4325.64,4136.92,4602.56,4665.13,4350.26,4032.31,4388.72,4646.15,4516.41,4796.92,1696,1710,1.01,0,0,0,0,1,0,
59,4076.92,4046.67,3964.62,3832.82,4324.1,4135.38,4601.03,4661.54,4347.69,4036.41,4388.21,4650.26,4520,4797.95,1697,1710,1.018,0,0,0,0,1,0,
60,4077.44,4041.03,3970.26,3834.87,4322.05,4134.36,4600.51,4664.1,4347.69,4038.46,4382.56,4652.31,4513.85,4796.92,1697,1710,1.026,0,0,0,0,1,0,
61,4075.38,4038.97,3970.26,3839.49,4320,4135.38,4603.08,4667.18,4344.62,4026.67,4377.95,4650.26,4508.21,4798.46,1698,1711,1.035,0,0,0,0,1,0,
62,4072.31,4044.62,3968.72,3836.41,4321.03,4135.38,4600,4658.97,4335.38,4017.95,4372.82,4645.64,4504.1,4795.38,1698,1711,1.042,0,0,0,0,1,0,
63,4070.77,4042.56,3968.21,3834.87,4325.13,4138.97,4602.05,4654.36,4332.82,4021.54,4368.72,4643.59,4497.44,4787.18,1699,1712,1.097,0,0,0,0,1,0,
64,4066.67,4030.26,3963.59,3834.36,4320.51,4147.18,4612.82,4660,4338.46,4018.46,4365.13,4643.08,4492.82,4782.05,1699,1709,1.099,0,0,0,0,1,0,
65,4060.51,4023.08,3960.51,3822.05,4314.87,4147.18,4616.41,4664.1,4343.08,4013.85,4363.08,4640,4494.36,4782.05,1698,1710,1.099,0,0,0,0,1,0,
66,4057.44,4022.56,3960,3817.95,4316.41,4139.49,4616.92,4667.69,4346.15,4020,4360.51,4635.9,4492.82,4781.03,1700,1709,1.099,0,0,0,0,1,0,
67,4055.38,4026.67,3957.44,3828.21,4314.87,4136.41,4616.92,4670.26,4346.67,4017.95,4356.92,4632.31,4487.69,4778.46,1698,1710,1.099,0,0,0,0,1,0,
68,4055.38,4032.31,3958.46,3831.28,4311.28,4137.95,4608.21,4664.1,4342.05,4006.67,4356.92,4632.82,4490.77,4779.49,1700,1712,1.099,0,0,0,0,1,0,
69,4059.49,4033.33,3963.59,3828.21,4317.44,4138.46,4598.46,4652.82,4338.46,4008.72,4361.03,4637.44,4498.97,4781.54,1698,1711,1.099,0,0,0,0,1,0,
70,4060.51,4035.38,3965.64,3832.82,4321.54,4136.92,4598.46,4648.72,4337.95,4017.44,4358.97,4641.03,4502.05,4779.49,1697,1711,1.106,0,0,0,0,1,0,
71,4059.49,4037.95,3967.69,3832.82,4316.92,4136.41,4600,4647.69,4336.41,4014.36,4357.44,4643.08,4502.56,4780,1694,1710,1.113,0,0,0,0,1,0,
72,4064.62,4038.97,3972.31,3832.31,4315.9,4136.92,4598.46,4648.72,4340,4012.82,4365.64,4647.18,4506.67,4787.18,1692,1710,1.121,0,0,0,0,1,0,
73,4069.74,4040.51,3980,3840,4317.44,4136.41,4600.51,4653.85,4343.59,4019.49,4369.74,4652.31,4512.82,4789.74,1690,1710,1.129,0,0,0,0,1,0,
74,4073.33,4040,3984.1,3836.92,4317.95,4134.36,4604.62,4658.97,4340,4018.97,4365.13,4651.28,4513.85,4788.21,1689,1712,1.136,0,0,0,0,1,0,
75,4070.77,4034.87,3982.05,3827.18,4321.03,4136.92,4604.1,4661.03,4340.51,4009.23,4360,4648.21,4510.77,4787.18,1689,1712,1.144,0,0,0,0,1,0,
76,4065.13,4027.69,3975.9,3829.74,4321.03,4137.95,4602.05,4660,4339.49,4010.26,4360.51,4647.69,4507.69,4784.1,1688,1714,1.151,0,0,0,0,1,0,
77,4063.59,4026.67,3972.31,3831.79,4316.41,4137.44,4605.64,4656.41,4332.82,4012.82,4362.05,4646.67,4508.21,4781.54,1690,1713,1.159,0,0,0,0,1,0,
78,4060.51,4024.1,3973.85,3822.56,4314.87,4138.46,4607.18,4652.31,4330.77,4001.03,4357.44,4641.54,4504.1,4781.03,1689,1712,1.168,0,0,0,0,1,0,
79,4053.85,4018.97,3970.26,3814.87,4312.31,4136.41,4600,4649.23,4331.79,3992.82,4352.82,4634.87,4501.03,4777.95,1690,1713,1.176,0,0,0,0,1,0,
80,4051.79,4020,3963.59,3816.92,4306.15,4135.38,4597.95,4642.05,4329.23,3997.44,4348.21,4632.31,4499.49,4768.72,1690,1711,1.182,0,0,0,0,1,0,
81,4052.82,4020.51,3964.62,3826.67,4306.15,4139.49,4601.54,4636.92,4326.67,3996.41,4340.51,4631.79,4490.77,4764.1,1690,1713,1.19,0,0,0,0,1,0,
82,4052.82,4020.51,3973.33,3833.33,4310.26,4136.41,4600.51,4640,4326.15,3993.85,4338.97,4634.87,4492.82,4767.69,1689,1713,1.199,0,0,0,0,1,0,
83,4056.92,4029.74,3976.92,3831.28,4318.46,4130.26,4601.03,4641.03,4328.21,4002.56,4348.72,4637.44,4509.23,4771.79,1688,1714,1.206,0,0,0,0,1,0,
84,4055.9,4037.44,3971.79,3829.74,4326.15,4136.41,4602.56,4640,4327.18,3998.46,4347.69,4634.36,4510.26,4769.23,1688,1714,1.214,0,0,0,0,1,0,
85,4046.67,4033.33,3967.69,3830.26,4324.1,4138.97,4597.44,4637.95,4320.51,3986.67,4332.82,4629.74,4496.41,4763.08,1687,1715,1.222,0,0,0,0,1,0,
86,4045.13,4036.41,3969.23,3827.69,4318.97,4130.77,4593.85,4634.87,4321.54,3989.23,4332.31,4630.77,4496.92,4760.51,1687,1713,1.229,0,0,0,0,1,0,
87,4053.33,4047.69,3974.87,3830.26,4323.59,4130.77,4598.97,4636.92,4329.23,3987.69,4344.62,4633.85,4505.64,4769.74,1685,1714,1.237,0,0,0,0,1,0,
88,4062.56,4052.31,3979.49,3836.92,4332.31,4138.97,4603.08,4644.1,4333.85,3988.21,4352.31,4634.87,4510.77,4777.44,1688,1713,1.245,0,0,0,0,1,0,
89,4061.54,4044.1,3980,3834.36,4329.23,4138.97,4600.51,4646.15,4336.41,4001.54,4349.74,4634.87,4512.31,4773.33,1687,1712,1.259,0,0,0,0,1,0,
90,4056.92,4039.49,3982.05,3829.74,4321.03,4135.38,4600,4644.1,4338.46,4006.15,4345.64,4639.49,4507.18,4770.26,1690,1713,1.265,0,0,0,0,1,0,
91,4062.56,4044.1,3988.72,3834.87,4321.54,4137.44,4604.62,4646.15,4338.46,4001.54,4347.18,4646.15,4506.15,4777.44,1692,1711,1.269,0,0,0,0,1,0,
92,4058.97,4026.67,3985.13,3830.77,4314.87,4138.46,4606.67,4643.59,4335.38,3996.41,4342.56,4641.03,4500.51,4773.33,1693,1711,1.277,0,0,0,0,1,0,
93,4041.03,4003.08,3972.82,3810.77,4306.15,4131.79,4603.08,4636.41,4327.69,3988.21,4333.33,4632.82,4482.05,4757.44,1695,1708,1.286,0,0,0,0,1,0,
94,4038.97,4022.05,3971.79,3810.77,4319.49,4128.72,4602.05,4633.85,4324.62,3987.69,4328.72,4633.33,4471.79,4756.92,1695,1708,1.292,0,0,0,0,1,0,
95,4051.28,4055.9,3978.97,3832.31,4330.77,4131.79,4601.03,4630.77,4325.13,3986.67,4322.05,4629.74,4466.15,4759.49,1696,1708,1.3,0,0,0,0,1,0,
96,4051.79,4060,3975.38,3838.46,4323.59,4129.74,4592.31,4620.51,4316.41,3966.67,4305.64,4617.95,4444.1,4751.79,1695,1707,1.308,0,0,0,0,1,0,
97,4054.87,4065.64,3970.77,3834.87,4326.67,4128.72,4583.59,4609.23,4307.69,3951.79,4294.87,4613.85,4426.67,4753.33,1695,1707,1.316,0,0,0,0,1,0,
98,4067.18,4094.87,3976.41,3845.13,4338.97,4133.85,4581.54,4602.05,4304.62,3946.67,4291.28,4617.95,4421.54,4757.44,1694,1708,1.323,0,0,0,0,1,0,
99,4071.79,4114.87,3980,3855.38,4341.54,4130.77,4585.13,4600,4301.03,3934.36,4287.69,4616.92,4404.62,4756.92,1694,1708,1.332,0,0,0,0,1,0,
100,4074.87,4118.97,3983.08,3853.85,4342.56,4121.54,4582.56,4601.54,4298.46,3929.74,4287.69,4616.41,4390.77,4760.51,1694,1708,1.339,0,0,0,0,1,0,
101,4080.51,4121.54,3989.74,3849.23,4341.03,4122.05,4575.9,4597.44,4300,3934.87,4288.21,4618.46,4400.51,4766.15,1693,1709,1.347,0,0,0,0,1,0,
102,4081.03,4130.26,3989.74,3851.28,4337.44,4125.64,4575.9,4586.67,4294.36,3926.67,4281.03,4616.92,4394.36,4762.56,1693,1706,1.356,0,0,0,0,1,0,
103,4083.59,4141.03,3987.18,3860.51,4337.95,4121.54,4575.9,4585.13,4286.15,3912.82,4272.31,4614.36,4365.13,4757.95,1691,1707,1.363,0,0,0,0,1,0,
104,4089.23,4141.54,3994.36,3866.15,4331.79,4122.56,4575.9,4588.21,4286.67,3910.77,4266.67,4614.87,4357.44,4759.49,1691,1707,1.37,0,0,0,0,1,0,
105,4088.72,4137.95,4002.05,3864.62,4329.23,4127.18,4579.49,4584.1,4291.28,3911.79,4263.08,4615.38,4367.18,4761.03,1689,1708,1.384,0,0,0,0,1,0,
106,4089.23,4144.62,4003.59,3862.56,4345.13,4126.15,4583.59,4582.56,4294.36,3909.23,4265.13,4614.36,4364.62,4763.59,1688,1709,1.389,0,0,0,0,1,0,
107,4100,4155.38,4003.08,3868.21,4361.03,4130.77,4585.64,4587.18,4295.9,3908.72,4266.15,4615.38,4357.44,4765.13,1687,1711,1.394,0,0,0,0,1,0,
108,4105.13,4157.44,4004.62,3876.41,4358.97,4135.38,4583.08,4584.62,4291.79,3910.77,4266.15,4616.92,4354.36,4765.64,1687,1711,1.402,0,0,0,0,1,0,
109,4096.41,4154.87,4002.56,3874.87,4349.23,4124.62,4576.92,4576.41,4285.64,3904.1,4268.72,4615.9,4348.21,4762.56,1685,1710,1.409,0,0,0,0,1,0,
110,4087.18,4151.79,4000.51,3866.67,4344.1,4117.44,4577.44,4576.41,4285.64,3895.9,4264.1,4615.38,4343.08,4753.33,1686,1709,1.417,0,0,0,0,1,0,
111,4089.23,4151.79,4002.56,3864.1,4345.64,4126.67,4586.15,4584.62,4288.72,3904.1,4261.03,4616.41,4343.59,4751.79,1686,1710,1.426,0,0,0,0,1,0,
112,4094.36,4161.54,4006.67,3870.26,4352.82,4131.28,4586.15,4589.23,4292.82,3917.44,4265.64,4619.49,4343.59,4760.51,1687,1710,1.433,0,0,0,0,1,0,
113,4092.31,4166.15,4006.15,3872.82,4354.36,4124.1,4580,4583.08,4290.77,3912.31,4262.05,4618.97,4341.03,4762.05,1687,1710,1.441,0,0,0,0,1,0,
114,4081.54,4154.36,4001.54,3867.18,4348.72,4125.64,4578.46,4573.85,4280.51,3897.44,4249.74,4612.82,4332.31,4751.79,1688,1710,1.45,0,0,0,0,1,0,
115,4077.44,4146.15,4000.51,3860.51,4348.21,4131.28,4583.59,4575.9,4280,3896.92,4247.18,4609.23,4326.15,4745.13,1689,1711,1.456,0,0,0,0,1,0,
116,4083.08,4152.31,4003.59,3862.56,4352.31,4127.69,4584.1,4577.95,4288.21,3901.03,4250.26,4613.33,4327.69,4748.72,1691,1710,1.465,0,0,0,0,1,0,
117,4086.67,4158.46,4007.69,3873.85,4351.28,4122.05,4580,4575.9,4287.69,3900.51,4257.95,4618.97,4331.28,4753.33,1689,1710,1.472,0,0,0,0,1,0,
118,4082.56,4151.28,4009.23,3874.36,4345.13,4121.54,4577.95,4576.41,4280,3898.97,4260.51,4616.41,4329.74,4750.26,1692,1710,1.48,0,0,0,0,1,0,
119,4076.41,4144.62,4004.62,3866.15,4344.62,4122.56,4576.41,4575.38,4281.03,3898.46,4251.28,4611.28,4325.64,4746.15,1691,1708,1.489,0,0,0,0,1,0,
120,4080,4154.87,4005.13,3864.62,4353.33,4127.69,4578.97,4572.31,4286.15,3902.56,4251.79,4615.9,4326.15,4748.21,1691,1711,1.499,0,0,0,0,1,0,
121,4085.13,4163.08,4011.28,3869.74,4360.51,4132.82,4586.67,4571.28,4287.18,3907.69,4260,4616.92,4329.74,4753.33,1693,1708,1.505,0,0,0,0,1,0,
122,4081.03,4156.41,4009.74,3868.21,4357.95,4131.28,4587.69,4573.33,4286.67,3909.74,4256.41,4607.18,4329.23,4750.26,1692,1709,1.511,0,0,0,0,1,0,
123,4075.38,4154.87,4002.05,3870.26,4352.82,4129.23,4582.56,4575.9,4288.21,3903.59,4254.87,4605.64,4327.69,4746.15,1693,1708,1.519,0,0,0,0,1,0,
124,4078.46,4160,4004.62,3879.49,4354.36,4131.28,4584.62,4576.92,4288.21,3901.03,4264.62,4616.41,4332.31,4750.77,1692,1708,1.527,0,0,0,0,1,0,
125,4082.56,4155.38,4011.28,3874.87,4356.92,4133.33,4587.18,4570.77,4284.62,3907.18,4265.64,4617.44,4336.41,4753.33,1692,1708,1.535,0,0,0,0,1,0,
126,4080.51,4151.79,4010.77,3864.1,4354.87,4132.82,4584.1,4567.69,4285.13,3910.26,4260.51,4614.36,4336.92,4750.77,1691,1708,1.542,0,0,0,0,1,0,
127,4076.41,4155.9,4005.64,3862.56,4349.74,4128.72,4584.1,4571.28,4284.62,3905.13,4263.59,4617.95,4337.95,4750.77,1693,1708,1.551,0,0,0,0,1,0,
128,4072.82,4151.28,4002.56,3864.1,4346.67,4125.13,4581.03,4565.13,4276.41,3898.46,4263.59,4618.97,4337.44,4751.28,1691,1708,1.559,0,0,0,0,1,0,
0,4076.92,4155.38,4009.74,3865.64,4353.33,4130.26,4577.44,4557.95,4276.92,3899.49,4257.44,4617.44,4340.51,4750.77,1691,1708,1.566,0,0,0,0,1,0,
1,4083.59,4165.64,4014.36,3867.18,4357.95,4134.36,4580,4563.08,4286.67,3903.59,4258.46,4617.95,4347.69,4753.33,1689,1707,1.574,0,0,0,0,1,0,
2,4080,4160,4013.33,3863.08,4350.26,4130.26,4583.59,4567.18,4288.21,3907.69,4261.54,4617.95,4351.79,4752.31,1688,1708,1.582,0,0,0,0,1,0,
3,4080.51,4151.79,4015.9,3866.15,4349.74,4131.79,4583.59,4565.13,4285.13,3913.33,4263.08,4617.95,4354.87,4751.79,1689,1707,1.589,0,0,0,0,1,0,
4,4085.64,4156.41,4019.49,3876.92,4359.49,4133.85,4582.56,4566.67,4287.18,3915.9,4261.54,4617.95,4351.28,4756.92,1688,1708,1.603,0,0,0,0,1,0,
5,4086.67,4156.92,4020,3872.82,4355.9,4127.18,4583.59,4571.79,4288.72,3915.38,4254.87,4617.95,4346.67,4756.41,1689,1708,1.611,0,0,0,0,1,0,
6,4084.62,4152.82,4020.51,3868.72,4349.74,4125.64,4589.74,4570.26,4288.72,3911.79,4254.36,4617.95,4351.79,4753.33,1690,1709,1.614,0,0,0,0,1,0,
7,4084.62,4154.36,4019.49,3872.82,4355.9,4135.9,4593.85,4569.23,4295.38,3909.74,4258.97,4617.95,4354.87,4755.38,1692,1709,1.621,0,0,0,0,1,0,
8,4082.05,4156.41,4018.46,3869.23,4358.46,4141.03,4591.28,4571.79,4300,3913.33,4257.44,4618.46,4349.74,4753.85,1694,1708,1.629,0,0,0,0,1,0,
9,4084.62,4162.05,4024.1,3868.21,4352.82,4134.87,4587.69,4569.23,4295.9,3912.31,4256.92,4618.97,4351.79,4750.77,1696,1710,1.636,0,0,0,0,1,0,
10,4089.74,4163.59,4025.13,3872.31,4352.31,4133.85,4586.67,4566.15,4291.28,3908.21,4259.49,4616.92,4355.38,4753.33,1696,1710,1.644,0,0,0,0,1,0,
11,4088.72,4161.03,4021.54,3872.31,4358.46,4139.49,4592.31,4567.18,4294.87,3913.85,4258.97,4618.46,4354.36,4755.9,1698,1711,1.652,0,0,0,0,1,0,
12,4087.18,4166.15,4025.64,3878.46,4360.51,4138.97,4600.51,4567.69,4297.44,3921.03,4256.92,4619.49,4358.97,4753.85,1698,1710,1.66,0,0,0,0,1,0,
13,4079.49,4164.1,4021.54,3878.97,4352.31,4133.33,4596.41,4562.05,4291.28,3914.87,4257.95,4609.74,4356.41,4750.77,1697,1712,1.668,0,0,0,0,1,0,
14,4067.69,4149.23,4009.23,3863.59,4341.54,4131.79,4587.69,4555.9,4284.62,3904.62,4253.85,4598.97,4345.13,4746.67,1697,1711,1.675,0,0,0,0,1,0,
15,4068.21,4147.18,4007.18,3859.49,4343.59,4136.41,4587.18,4552.31,4288.72,3907.69,4250.26,4598.97,4345.13,4743.08,1695,1711,1.684,0,0,0,0,1,0,
16,4077.95,4160,4016.41,3867.69,4356.92,4138.46,4586.67,4557.44,4292.82,3911.79,4256.92,4606.15,4355.38,4746.15,1695,1712,1.692,0,0,0,0,1,0,
17,4080.51,4164.62,4018.97,3865.64,4362.56,4138.97,4584.1,4564.62,4292.82,3909.23,4266.15,4609.23,4361.03,4749.74,1694,1712,1.699,0,0,0,0,1,0,
18,4074.87,4162.05,4013.85,3866.15,4357.95,4140,4586.15,4561.54,4295.38,3911.79,4263.08,4604.62,4361.03,4744.62,1693,1712,1.707,0,0,0,0,1,0,
19,4070.77,4158.46,4013.33,3868.72,4352.82,4138.97,4586.67,4558.46,4295.9,3913.33,4248.21,4600.51,4351.28,4736.41,1691,1712,1.715,0,0,0,0,1,0,
20,4066.67,4151.28,4012.82,3866.15,4350.26,4137.95,4590.26,4562.56,4289.74,3910.77,4242.56,4600.51,4340.51,4732.31,1691,1712,1.722,0,0,0,0,1,0,
21,4068.72,4149.74,4011.28,3863.08,4347.69,4141.54,4596.41,4569.23,4293.33,3917.95,4254.87,4600.51,4353.85,4737.95,1690,1711,1.73,0,0,0,0,1,0,
22,4075.9,4153.33,4016.92,3864.62,4347.18,4147.69,4598.97,4577.95,4308.21,3934.87,4274.87,4607.18,4382.05,4748.21,1690,1711,1.739,0,0,0,0,1,0,
23,4078.97,4147.18,4023.08,3864.62,4347.69,4150.26,4602.05,4580,4312.82,3943.08,4291.28,4617.44,4399.49,4752.82,1690,1709,1.746,0,0,0,0,1,0,
24,4082.05,4137.95,4024.1,3866.67,4342.56,4149.23,4603.59,4573.33,4304.1,3944.1,4292.82,4617.95,4410.77,4755.38,1689,1710,1.754,0,0,0,0,1,0,
25,4084.1,4136.92,4024.62,3865.64,4337.95,4149.23,4599.49,4571.79,4301.03,3947.69,4291.79,4615.38,4421.03,4763.08,1691,1708,1.762,0,0,0,0,1,0,
26,4078.97,4129.74,4024.62,3859.49,4338.97,4154.36,4601.03,4578.46,4308.72,3956.41,4296.41,4616.41,4425.64,4765.64,1689,1709,1.769,0,0,0,0,1,0,
27,4077.44,4118.97,4025.13,3857.44,4338.97,4155.38,4606.67,4581.03,4316.92,3969.74,4302.56,4621.03,4436.92,4762.56,1689,1709,1.777,0,0,0,0,1,0,
28,4087.69,4118.97,4032.31,3860.51,4336.41,4153.85,4604.1,4583.59,4320.51,3974.36,4313.85,4630.26,4455.9,4769.74,1688,1708,1.785,0,0,0,0,1,0,
29,4096.41,4122.05,4042.05,3864.62,4338.46,4154.87,4606.67,4588.72,4322.56,3977.44,4326.15,4638.46,4466.15,4780.51,1687,1710,1.793,0,0,0,0,1,0,
30,4096.92,4117.44,4042.56,3860,4340,4155.9,4612.82,4590.77,4326.15,3988.72,4327.18,4635.9,4470.26,4784.1,1687,1710,1.802,0,0,0,0,1,0,
31,4094.87,4110.26,4040,3849.74,4334.36,4153.33,4608.72,4589.23,4329.23,4001.03,4329.74,4633.33,4481.54,4784.1,1686,1710,1.808,0,0,0,0,1,0,
32,4092.82,4108.72,4042.05,3850.26,4331.79,4156.41,4603.08,4585.13,4327.18,4008.72,4337.95,4638.46,4490.26,4785.13,1685,1710,1.816,0,0,0,0,1,0,
33,4091.28,4105.64,4041.54,3854.36,4333.85,4166.67,4604.62,4584.1,4323.59,4010.26,4338.97,4638.46,4492.31,4784.62,1685,1711,1.825,0,0,0,0,1,0,
34,4087.18,4093.33,4038.97,3851.28,4332.31,4169.74,4609.23,4585.64,4324.62,4005.13,4336.41,4635.38,4493.33,4783.59,1683,1711,1.832,0,0,0,0,1,0,
35,4082.56,4087.69,4039.49,3846.67,4327.69,4167.69,4611.79,4583.08,4323.59,4000,4336.41,4636.92,4490.26,4780.51,1685,1710,1.84,0,0,0,0,1,0,
36,4086.67,4094.87,4043.08,3848.72,4327.69,4167.69,4614.36,4583.08,4324.1,4003.08,4341.54,4643.59,4490.77,4780,1686,1709,1.848,0,0,0,0,1,0,
37,4090.77,4096.41,4045.64,3848.21,4329.74,4167.69,4616.41,4592.82,4332.31,4012.82,4348.21,4648.72,4500,4789.23,1688,1709,1.855,0,0,0,0,1,0,
38,4089.23,4088.72,4045.64,3848.21,4328.72,4167.69,4613.85,4595.9,4339.49,4020.51,4349.74,4649.74,4507.69,4791.28,1689,1708,1.864,0,0,0,0,1,0,
39,4090.26,4090.26,4048.21,3850.26,4329.74,4168.21,4608.72,4590.26,4334.87,4027.18,4352.82,4649.23,4510.26,4780,1691,1708,1.871,0,0,0,0,1,0,
40,4091.79,4095.9,4050.77,3849.23,4329.74,4167.18,4611.28,4587.18,4328.72,4028.72,4360,4649.74,4517.95,4770.77,1692,1708,1.885,0,0,0,0,1,0,
41,4091.28,4093.85,4045.13,3847.69,4324.62,4168.21,4617.95,4587.69,4334.36,4028.21,4362.56,4650.77,4526.15,4768.21,1691,1709,1.892,0,0,0,0,1,0,
42,4090.77,4090.26,4043.08,3846.67,4325.13,4169.23,4618.97,4590.77,4342.56,4029.23,4360.51,4650.77,4525.64,4770.77,1690,1708,1.894,0,0,0,0,1,0,
43,4088.72,4088.72,4047.18,3848.21,4329.74,4168.21,4615.38,4593.33,4338.97,4025.13,4358.97,4649.23,4521.03,4772.31,1688,1709,1.907,0,0,0,0,1,0,
44,4083.59,4089.23,4045.13,3847.69,4327.18,4168.21,4612.82,4588.21,4331.28,4022.56,4353.85,4643.08,4516.41,4769.23,1688,1707,1.91,0,0,0,0,1,0,
45,4084.1,4098.46,4040.51,3846.67,4326.67,4168.21,4610.26,4583.08,4335.38,4032.82,4353.85,4640.51,4517.44,4767.18,1686,1707,1.918,0,0,0,0,1,0,
46,4087.69,4105.13,4042.05,3849.23,4331.28,4169.23,4606.15,4586.15,4340.51,4043.59,4359.49,4642.56,4523.59,4771.79,1687,1708,1.926,0,0,0,0,1,0,
47,4084.62,4095.38,4040,3849.23,4329.74,4174.87,4605.64,4584.1,4332.31,4038.97,4357.44,4636.41,4523.08,4771.79,1686,1709,1.934,0,0,0,0,1,0,
48,4079.49,4086.15,4036.41,3847.18,4329.74,4175.38,4612.31,4579.49,4325.13,4027.18,4352.82,4632.31,4521.03,4767.18,1687,1711,1.941,0,0,0,0,1,0,
49,4080,4093.33,4039.49,3849.74,4336.41,4176.92,4615.9,4584.1,4329.23,4023.59,4353.85,4638.97,4521.03,4768.72,1686,1711,1.95,0,0,0,0,1,0,
50,4083.08,4098.46,4036.92,3849.74,4336.92,4181.54,4613.85,4588.72,4333.85,4025.64,4357.95,4641.54,4520,4772.31,1688,1711,1.957,0,0,0,0,1,0,
51,4082.56,4095.9,4034.36,3844.62,4334.36,4175.9,4614.87,4586.67,4337.44,4030.26,4361.54,4636.92,4522.56,4772.82,1688,1711,1.965,0,0,0,0,1,0,
52,4081.54,4093.33,4037.44,3843.59,4333.33,4172.31,4616.92,4585.13,4338.97,4034.36,4361.03,4638.97,4525.13,4770.77,1688,1712,1.973,0,0,0,0,1,0,
53,4080.51,4091.28,4037.95,3845.64,4329.74,4182.56,4615.38,4584.62,4333.85,4031.28,4354.87,4642.05,4521.03,4767.18,1688,1711,1.981,0,0,0,0,1,0,
54,4077.95,4088.72,4037.95,3845.64,4327.69,4188.72,4614.87,4577.44,4328.72,4025.64,4351.79,4638.97,4518.97,4766.15,1686,1714,1.988,0,0,0,0,1,0,
55,4080.51,4089.23,4042.05,3847.18,4329.74,4182.05,4612.31,4575.38,4332.82,4026.15,4355.38,4641.54,4522.05,4770.26,1686,1714,1.996,0,0,0,0,1,0,
56,4089.23,4093.85,4050.26,3849.74,4332.82,4177.44,4614.87,4584.62,4338.97,4031.28,4365.13,4651.28,4522.05,4779.49,1684,1715,2.005,0,0,0,0,1,0,
57,4092.31,4097.95,4052.82,3851.28,4333.85,4181.54,4620.51,4587.18,4341.03,4037.95,4370.77,4653.85,4528.21,4783.59,1685,1716,2.012,0,0,0,0,1,0,
58,4088.72,4092.82,4050.77,3848.72,4331.28,4182.56,4620,4583.08,4344.62,4040.51,4369.23,4649.74,4535.38,4781.54,1685,1715,2.026,0,0,0,0,1,0,
59,4087.18,4093.33,4050.26,3848.72,4333.85,4178.46,4618.46,4586.15,4347.69,4038.97,4369.23,4650.77,4530.26,4782.05,1685,1715,2.029,0,0,0,0,1,0,
60,4087.69,4101.54,4053.85,3854.36,4338.46,4177.44,4616.41,4587.69,4342.05,4041.03,4369.23,4655.38,4525.64,4782.56,1687,1713,2.035,0,0,0,0,1,0,
61,4091.28,4098.46,4057.44,3855.9,4337.95,4184.62,4613.85,4583.08,4338.97,4040,4367.69,4656.92,4529.74,4782.05,1687,1712,2.05,0,0,0,0,1,0,
62,4094.87,4093.33,4057.95,3849.23,4339.49,4187.69,4614.87,4583.59,4342.05,4030.26,4370.26,4657.44,4530.26,4783.59,1687,1710,2.05,0,0,0,0,1,0,
63,4089.23,4095.38,4057.44,3845.64,4342.05,4185.13,4620,4583.59,4337.44,4026.67,4367.69,4656.92,4522.05,4784.62,1688,1710,2.059,0,0,0,0,1,0,
64,4080,4090.26,4052.82,3848.72,4336.41,4186.67,4621.03,4574.36,4329.23,4027.18,4353.85,4651.28,4506.67,4775.38,1689,1708,2.067,0,0,0,0,1,0,
65,4074.87,4083.59,4045.64,3849.74,4328.21,4186.67,4620,4573.85,4335.38,4022.56,4347.18,4644.62,4497.95,4764.62,1688,1708,2.074,0,0,0,0,1,0,
66,4072.82,4088.72,4047.18,3845.13,4332.31,4185.64,4620.51,4580,4341.03,4021.54,4355.38,4645.13,4497.44,4764.1,1691,1707,2.083,0,0,0,0,1,0,
67,4075.38,4093.85,4053.33,3848.21,4338.46,4186.67,4621.54,4577.95,4334.36,4018.46,4356.92,4651.28,4498.97,4768.21,1691,1707,2.09,0,0,0,0,1,0,
68,4078.97,4090.26,4051.28,3848.21,4335.38,4184.62,4620.51,4576.92,4331.79,4005.64,4351.28,4649.74,4498.46,4766.67,1693,1709,2.098,0,0,0,0,1,0,
69,4075.9,4087.18,4048.72,3838.46,4332.82,4183.59,4616.92,4582.05,4335.38,4005.13,4351.28,4646.67,4497.44,4765.13,1693,1708,2.106,0,0,0,0,1,0,
70,4070.26,4089.23,4051.79,3836.92,4338.46,4192.31,4619.49,4584.62,4333.85,4017.44,4352.82,4647.69,4493.85,4768.72,1693,1710,2.114,0,0,0,0,1,0,
71,4071.28,4088.72,4049.74,3840,4338.97,4194.36,4621.54,4582.56,4331.28,4017.95,4346.15,4648.21,4486.15,4763.59,1693,1710,2.121,0,0,0,0,1,0,
72,4070.26,4085.64,4045.13,3841.54,4330.77,4188.72,4620,4583.59,4332.82,4009.23,4340.51,4647.69,4481.54,4754.36,1691,1711,2.13,0,0,0,0,1,0,
73,4064.1,4086.67,4049.23,3843.59,4326.67,4189.74,4622.56,4584.62,4333.33,4005.13,4342.56,4647.69,4480,4757.44,1689,1711,2.137,0,0,0,0,1,0,
74,4065.13,4088.21,4050.26,3840.51,4331.28,4190.26,4628.21,4586.15,4339.49,4006.15,4344.62,4647.69,4478.97,4760.51,1687,1712,2.145,0,0,0,0,1,0,
75,4070.77,4085.64,4048.72,3841.03,4340.51,4191.79,4629.74,4587.69,4345.64,4013.85,4345.13,4647.69,4476.41,4758.97,1686,1711,2.153,0,0,0,0,1,0,
76,4066.67,4083.59,4048.72,3842.56,4338.46,4196.92,4627.69,4583.59,4340,4019.49,4344.62,4648.72,4474.87,4758.46,1684,1712,2.161,0,0,0,0,1,0,
77,4059.49,4082.05,4045.13,3834.87,4328.21,4197.44,4630.26,4581.03,4334.87,4012.82,4343.08,4648.21,4475.38,4758.46,1685,1710,2.168,0,0,0,0,1,0,
78,4065.13,4085.64,4047.18,3836.92,4333.33,4197.44,4633.33,4585.13,4337.44,4008.72,4345.13,4650.26,4476.41,4759.49,1684,1711,2.176,0,0,0,0,1,0,
79,4069.74,4090.26,4052.82,3847.18,4342.05,4202.56,4625.13,4582.05,4334.87,4011.79,4342.56,4649.74,4471.79,4758.97,1686,1712,2.184,0,0,0,0,1,0,
80,4063.59,4086.67,4049.23,3842.05,4341.03,4202.05,4620.51,4575.9,4328.21,4007.69,4331.79,4646.15,4465.64,4751.79,1687,1710,2.192,0,0,0,0,1,0,
81,4058.97,4085.13,4044.1,3836.41,4340.51,4197.44,4627.18,4577.95,4331.28,3999.49,4329.74,4644.62,4464.62,4746.15,1688,1711,2.2,0,0,0,0,1,0,
82,4063.08,4090.26,4046.15,3842.05,4339.49,4199.49,4626.67,4577.95,4333.33,3999.49,4336.92,4644.62,4466.67,4750.77,1690,1710,2.214,0,0,0,0,1,0,
83,4071.28,4095.9,4051.79,3843.59,4337.44,4201.03,4621.03,4576.92,4333.33,4008.72,4339.49,4647.18,4468.21,4757.95,1692,1711,2.214,0,0,0,0,1,0,
84,4075.38,4097.44,4056.92,3848.72,4342.05,4201.03,4625.64,4584.1,4338.46,4017.44,4341.03,4650.26,4472.82,4763.08,1694,1711,2.223,0,0,0,0,1,0,
85,4072.31,4102.05,4059.49,3855.9,4348.21,4203.59,4628.21,4587.18,4340.51,4015.38,4344.1,4649.74,4473.33,4762.05,1694,1714,2.231,0,0,0,0,1,0,
86,4074.87,4102.05,4058.46,3848.72,4347.69,4208.21,4626.15,4584.1,4343.08,4015.38,4348.21,4651.79,4475.9,4761.54,1694,1714,2.239,0,0,0,0,1,0,
87,4076.92,4087.18,4060,3836.92,4342.56,4208.72,4635.38,4592.82,4350.77,4031.79,4355.9,4657.44,4483.08,4766.15,1696,1715,2.247,0,0,0,0,1,0,
88,4061.54,4075.38,4054.36,3830.26,4334.36,4205.64,4638.97,4594.87,4344.1,4031.28,4345.13,4654.36,4467.69,4756.92,1699,1714,2.254,0,0,0,0,1,0,
89,4046.67,4084.1,4040.51,3832.31,4334.36,4203.59,4625.64,4577.95,4325.64,4004.1,4320,4640,4436.41,4738.97,1702,1715,2.262,0,0,0,0,1,0,
90,4049.74,4100.51,4037.44,3840,4342.05,4201.03,4616.92,4568.72,4322.56,3989.74,4312.82,4632.31,4424.1,4732.82,1706,1713,2.27,0,0,0,0,1,0,
91,4055.38,4109.23,4043.08,3848.72,4348.72,4197.44,4617.44,4570.26,4327.69,3990.26,4313.33,4632.82,4415.38,4732.31,1709,1714,2.278,0,0,0,0,1,0,
92,4055.9,4121.03,4045.64,3860,4354.36,4199.49,4613.85,4563.59,4321.03,3983.08,4302.05,4633.85,4394.36,4732.31,1711,1714,2.286,0,0,0,0,1,0,
93,4055.9,4135.9,4043.59,3864.1,4357.44,4206.67,4607.69,4554.87,4314.87,3971.79,4293.85,4628.21,4375.9,4731.79,1712,1714,2.293,0,0,0,0,1,0,
94,4053.85,4146.67,4042.56,3862.56,4359.49,4209.23,4608.21,4554.36,4314.36,3961.03,4290.77,4620,4365.13,4723.59,1713,1713,2.302,0,0,0,0,1,0,
95,4054.36,4157.44,4041.03,3864.62,4366.15,4206.15,4607.18,4548.72,4306.67,3947.18,4279.49,4617.95,4349.23,4713.85,1712,1713,2.31,0,0,0,0,1,0,
96,4054.87,4165.64,4036.41,3864.62,4366.67,4200.51,4601.03,4535.9,4293.85,3936.41,4267.18,4614.36,4331.28,4708.72,1716,1712,2.318,0,0,0,0,1,0,
97,4056.41,4174.87,4034.36,3864.1,4360,4191.28,4596.92,4533.33,4291.79,3926.67,4265.13,4610.77,4321.03,4710.26,1717,1711,2.325,0,0,0,0,1,0,
98,4065.64,4188.21,4038.97,3870.77,4363.59,4188.21,4592.31,4537.44,4296.41,3914.36,4266.67,4612.82,4317.44,4715.38,1722,1712,2.333,0,0,0,0,1,0,
99,4072.31,4203.08,4046.67,3879.49,4373.33,4195.38,4586.67,4533.33,4290.77,3911.28,4263.59,4615.9,4311.28,4717.95,1725,1709,2.34,0,0,0,0,1,0,
100,4080,4218.46,4052.31,3888.21,4380.51,4194.87,4585.13,4526.15,4283.08,3908.72,4262.05,4617.44,4307.18,4723.08,1726,1710,2.348,0,0,0,0,1,0,
101,4088.21,4232.31,4051.79,3895.38,4379.49,4191.79,4583.08,4524.1,4281.54,3897.44,4255.38,4615.38,4300,4728.21,1727,1709,2.356,0,0,0,0,1,0,
102,4088.72,4243.59,4044.62,3897.95,4374.36,4192.82,4576.92,4516.41,4271.79,3889.74,4240.51,4605.13,4278.97,4722.05,1724,1709,2.364,0,0,0,0,1,0,
103,4087.69,4252.31,4045.64,3897.95,4377.95,4192.31,4576.92,4510.77,4266.67,3886.15,4232.82,4599.49,4265.13,4718.46,1720,1707,2.372,0,0,0,0,1,0,
104,4089.23,4262.56,4050.77,3896.41,4384.1,4195.9,4583.08,4514.36,4272.82,3879.49,4233.85,4605.64,4267.18,4720.51,1716,1703,2.379,0,0,0,0,1,0,
105,4088.21,4267.69,4046.67,3897.95,4382.56,4203.59,4585.64,4512.82,4273.33,3877.95,4234.87,4605.64,4259.49,4714.36,1714,1699,2.388,0,0,0,0,1,0,
106,4088.21,4268.72,4046.15,3908.72,4380.51,4197.44,4583.08,4510.77,4271.28,3883.59,4233.85,4601.54,4248.72,4712.31,1711,1696,2.395,0,0,0,0,1,0,
107,4086.15,4267.69,4050.77,3908.72,4384.1,4192.31,4581.03,4514.36,4275.9,3878.46,4226.67,4600.51,4245.13,4712.82,1711,1697,2.409,0,0,0,0,1,0,
108,4072.82,4265.13,4040,3895.38,4388.21,4202.05,4579.49,4509.74,4269.23,3863.59,4216.92,4592.82,4231.79,4700,1710,1699,2.411,0,0,0,0,1,0,
109,4063.59,4263.08,4030.77,3900.51,4390.77,4200.51,4580,4500,4256.92,3853.85,4211.79,4583.59,4212.82,4689.23,1711,1702,2.419,0,0,0,0,1,0,
110,4063.08,4267.18,4037.44,3911.79,4392.82,4194.87,4584.62,4505.13,4260.51,3850.77,4207.18,4583.59,4206.67,4690.26,1712,1703,2.426,0,0,0,0,1,0,
111,4056.92,4269.74,4036.41,3901.54,4390.26,4199.49,4586.67,4510.77,4267.69,3854.36,4199.49,4585.13,4201.03,4685.64,1710,1707,2.434,0,0,0,0,1,0,
112,4053.33,4268.72,4030.77,3893.85,4385.64,4193.33,4577.44,4508.72,4266.67,3852.82,4196.41,4583.08,4194.87,4681.03,1711,1708,2.443,0,0,0,0,1,0,
113,4061.54,4270.26,4038.46,3907.69,4386.67,4184.1,4570.77,4511.28,4266.15,3849.74,4201.03,4584.1,4200.51,4688.21,1707,1709,2.45,0,0,0,0,1,0,
114,4061.54,4270.77,4039.49,3910.77,4389.74,4192.31,4574.87,4512.82,4267.69,3853.33,4201.03,4585.64,4201.03,4688.21,1703,1710,2.458,0,0,0,0,1,0,
115,4050.26,4268.21,4024.1,3898.97,4382.56,4196.92,4572.82,4505.13,4260,3853.33,4189.23,4582.05,4189.74,4673.85,1700,1711,2.466,0,0,0,0,1,0,
116,4045.13,4263.59,4020,3897.44,4375.38,4189.23,4569.74,4497.95,4251.79,3843.59,4184.1,4579.49,4186.15,4670.77,1699,1713,2.478,0,0,0,0,1,0,
117,4049.74,4261.54,4030.77,3902.56,4382.56,4195.38,4574.36,4502.56,4259.49,3842.05,4187.69,4583.08,4188.72,4680.51,1698,1714,2.483,0,0,0,0,1,0,
118,4051.79,4266.15,4032.82,3905.13,4387.18,4206.15,4579.49,4508.21,4268.21,3850.26,4187.69,4586.15,4188.72,4683.08,1699,1716,2.49,0,0,0,0,1,0,
119,4048.72,4272.31,4030.26,3908.21,4386.15,4201.54,4581.54,4505.64,4263.08,3851.79,4187.69,4583.59,4183.08,4677.44,1699,1715,2.498,0,0,0,0,1,0,
120,4049.23,4272.82,4035.38,3911.28,4391.79,4199.49,4582.05,4503.59,4260.51,3847.18,4188.21,4583.59,4175.9,4674.36,1699,1716,2.505,0,0,0,0,1,0,
121,4052.82,4269.23,4036.92,3908.72,4391.79,4201.03,4582.56,4508.21,4265.64,3843.08,4185.13,4587.18,4169.74,4676.41,1698,1714,2.513,0,0,0,0,1,0,
122,4051.79,4267.18,4034.36,3908.72,4383.59,4198.97,4581.03,4508.21,4261.54,3838.97,4182.05,4586.67,4169.74,4678.97,1694,1715,2.52,0,0,0,0,1,0,
123,4045.13,4267.69,4034.87,3907.18,4381.03,4198.97,4575.38,4497.44,4251.28,3836.92,4182.05,4583.08,4168.72,4672.31,1693,1714,2.528,0,0,0,0,1,0,
124,4047.18,4265.13,4036.92,3906.67,4380.51,4199.49,4573.33,4490.77,4247.69,3835.38,4180,4582.56,4166.15,4668.72,1689,1715,2.536,0,0,0,0,1,0,
125,4056.92,4263.08,4041.03,3912.82,4382.56,4198.46,4582.56,4496.92,4253.33,3834.87,4181.54,4588.21,4175.38,4681.03,1689,1714,2.544,0,0,0,0,1,0,
126,4062.56,4270.77,4049.23,3915.9,4389.74,4204.62,4590.26,4505.13,4260,3838.97,4191.79,4596.41,4186.67,4690.77,1688,1715,2.552,0,0,0,0,1,0,
127,4062.05,4275.9,4049.74,3910.26,4394.36,4211.28,4586.15,4506.15,4262.05,3844.1,4200.51,4600.51,4187.69,4686.15,1689,1716,2.56,0,0,0,0,1,0,
128,4062.56,4273.33,4047.18,3907.18,4394.87,4211.79,4587.18,4511.28,4266.15,3846.15,4195.38,4599.49,4186.67,4686.15,1688,1715,2.567,0,0,0,0,1,0,
0,4068.21,4273.85,4052.82,3914.87,4396.41,4220,4596.92,4522.56,4269.23,3850.26,4189.23,4598.46,4187.18,4690.77,1689,1715,2.575,0,0,0,0,1,0,
1,4070.26,4281.54,4056.92,3916.92,4397.95,4225.13,4600,4521.54,4267.69,3854.87,4195.9,4600,4188.21,4693.85,1689,1715,2.584,0,0,0,0,1,0,
2,4069.23,4282.05,4055.38,3913.33,4401.54,4218.46,4596.41,4513.85,4267.18,3857.95,4205.64,4602.05,4195.9,4700,1689,1716,2.591,0,0,0,0,1,0,
3,4069.23,4278.46,4053.85,3914.87,4403.08,4218.97,4596.41,4515.38,4265.13,3856.92,4203.08,4601.03,4202.05,4700.51,1689,1714,2.599,0,0,0,0,1,0,
4,4069.74,4281.03,4052.82,3920.51,4402.05,4223.59,4597.95,4522.56,4263.59,3861.54,4203.59,4597.95,4201.03,4696.41,1687,1716,2.607,0,0,0,0,1,0,
5,4071.79,4280.51,4054.36,3926.15,4401.54,4217.95,4595.9,4522.05,4270.77,3870.77,4213.33,4598.97,4206.15,4700,1686,1715,2.614,0,0,0,0,1,0,
6,4073.33,4276.92,4058.46,3919.49,4402.56,4214.36,4597.44,4520.51,4281.03,3873.85,4212.82,4602.56,4212.82,4703.08,1685,1715,2.622,0,0,0,0,1,0,
7,4071.79,4280,4056.92,3912.31,4404.62,4220.51,4600.51,4523.59,4284.1,3872.31,4208.21,4602.05,4214.36,4698.97,1685,1716,2.63,0,0,0,0,1,0,
8,4066.67,4281.54,4052.82,3920,4404.62,4223.08,4601.03,4525.64,4281.54,3877.44,4211.28,4602.56,4216.41,4697.44,1686,1716,2.638,0,0,0,0,1,0,
9,4062.05,4272.31,4049.74,3919.49,4402.05,4220.51,4601.03,4524.1,4275.38,3878.97,4210.26,4601.54,4214.87,4694.36,1688,1716,2.646,0,0,0,0,1,0,
10,4053.85,4262.56,4041.54,3906.15,4395.9,4219.49,4599.49,4523.08,4268.21,3867.69,4200.51,4590.26,4203.59,4685.64,1689,1715,2.653,0,0,0,0,1,0,
11,4046.67,4255.9,4035.9,3899.49,4388.72,4221.03,4593.33,4518.46,4260,3855.38,4190.77,4583.59,4189.74,4678.97,1690,1715,2.661,0,0,0,0,1,0,
12,4046.67,4253.33,4038.97,3904.62,4386.15,4222.05,4591.79,4512.82,4255.9,3849.23,4191.79,4589.74,4188.72,4680.51,1689,1715,2.669,0,0,0,0,1,0,
13,4049.74,4257.95,4043.59,3907.69,4389.23,4219.49,4595.38,4513.85,4260,3850.26,4196.92,4591.28,4196.41,4685.13,1690,1714,2.677,0,0,0,0,1,0,
14,4048.72,4258.46,4043.59,3906.15,4388.21,4212.82,4591.79,4512.82,4264.1,3857.95,4195.38,4585.64,4196.41,4685.64,1689,1714,2.685,0,0,0,0,1,0,
15,4048.72,4254.36,4042.56,3903.08,4380,4209.23,4586.67,4507.18,4262.56,3857.44,4190.77,4589.74,4191.79,4684.62,1691,1714,2.693,0,0,0,0,1,0,
16,4055.38,4258.46,4047.69,3905.13,4375.9,4210.77,4588.21,4513.33,4261.54,3853.33,4195.9,4598.97,4194.36,4689.74,1692,1713,2.7,0,0,0,0,1,0,
17,4063.08,4268.21,4055.9,3912.82,4382.56,4216.41,4592.82,4524.1,4266.15,3865.13,4210.77,4603.08,4209.23,4696.92,1694,1713,2.708,0,0,0,0,1,0,
18,4064.62,4266.15,4054.36,3913.85,4389.23,4224.1,4596.41,4522.05,4271.79,3875.9,4212.82,4601.54,4216.92,4695.38,1694,1713,2.716,0,0,0,0,1,0,
19,4060,4255.38,4050.26,3909.74,4389.23,4227.18,4596.92,4520,4271.79,3870.26,4203.08,4600,4207.18,4693.33,1695,1715,2.728,0,0,0,0,1,0,
20,4057.95,4257.44,4056.41,3908.72,4385.13,4219.49,4596.92,4524.62,4267.69,3868.21,4205.64,4600.51,4204.62,4695.9,1694,1712,2.733,0,0,0,0,1,0,
21,4057.95,4261.54,4054.36,3909.74,4379.49,4213.85,4592.82,4523.08,4263.59,3872.31,4212.82,4600.51,4212.31,4692.31,1693,1713,2.739,0,0,0,0,1,0,
22,4056.41,4253.33,4041.03,3904.1,4377.95,4217.95,4588.72,4520,4262.56,3868.21,4205.64,4598.97,4210.26,4686.67,1692,1710,2.747,0,0,0,0,1,0,
23,4050.77,4244.62,4038.46,3896.92,4380.51,4218.46,4587.18,4517.95,4267.18,3862.05,4200,4599.49,4203.59,4686.15,1690,1713,2.755,0,0,0,0,1,0,
24,4050.77,4252.31,4044.62,3904.1,4382.05,4215.38,4588.21,4517.95,4269.74,3862.56,4211.28,4599.49,4214.87,4688.72,1691,1714,2.763,0,0,0,0,1,0,
25,4054.87,4255.38,4046.15,3914.36,4383.59,4222.05,4591.79,4520,4268.21,3864.62,4216.92,4600,4221.03,4688.72,1691,1715,2.771,0,0,0,0,1,0,
26,4052.82,4250.26,4045.64,3906.67,4388.21,4231.79,4595.9,4518.97,4267.18,3867.18,4208.21,4600,4214.87,4686.67,1692,1715,2.779,0,0,0,0,1,0,
27,4051.28,4251.28,4043.08,3897.95,4390.77,4234.87,4600,4516.92,4270.26,3872.82,4207.18,4593.85,4217.95,4686.15,1693,1715,2.786,0,0,0,0,1,0,
28,4051.79,4248.21,4046.15,3902.56,4387.18,4230.26,4603.59,4527.18,4277.44,3876.92,4215.38,4592.31,4220.51,4687.69,1695,1715,2.794,0,0,0,0,1,0,
29,4050.77,4243.08,4050.26,3907.18,4381.03,4228.72,4608.72,4536.92,4284.62,3880.51,4218.46,4600.51,4215.9,4687.69,1695,1715,2.802,0,0,0,0,1,0,
30,4051.28,4246.67,4044.62,3908.21,4374.87,4232.82,4604.62,4531.28,4283.59,3884.62,4214.87,4602.56,4215.9,4684.1,1695,1716,2.81,0,0,0,0,1,0,
31,4054.36,4249.23,4042.05,3908.21,4378.97,4232.31,4597.95,4528.72,4280.51,3888.21,4213.33,4600.51,4217.44,4684.1,1696,1717,2.818,0,0,0,0,1,0,
32,4054.36,4250.26,4045.13,3910.26,4387.69,4229.23,4601.54,4530.26,4277.44,3878.46,4208.72,4594.87,4208.72,4684.1,1695,1719,2.825,0,0,0,0,1,0,
33,4048.72,4254.36,4041.54,3911.28,4386.15,4230.77,4601.54,4524.62,4271.79,3864.1,4198.46,4588.21,4196.41,4680.51,1696,1719,2.833,0,0,0,0,1,0,
34,4047.69,4254.87,4040.51,3909.74,4382.05,4231.28,4597.95,4520.51,4270.26,3870.77,4199.49,4592.82,4200,4679.49,1693,1721,2.841,0,0,0,0,1,0,
35,4051.28,4248.72,4046.67,3907.69,4386.15,4228.72,4600,4522.56,4271.79,3886.15,4207.18,4599.49,4206.67,4682.56,1692,1721,2.849,0,0,0,0,1,0,
36,4051.79,4246.15,4041.54,3907.18,4383.08,4228.72,4602.05,4518.97,4270.26,3882.56,4202.56,4590.77,4203.59,4683.59,1689,1722,2.857,0,0,0,0,1,0,
37,4043.08,4246.67,4032.31,3907.69,4372.82,4224.62,4598.97,4517.44,4267.69,3872.31,4198.97,4582.05,4199.49,4681.03,1688,1723,2.866,0,0,0,0,1,0,
38,4038.46,4250.26,4034.36,3906.67,4375.9,4220.51,4598.46,4522.56,4269.74,3871.79,4202.05,4583.59,4198.97,4681.03,1688,1721,2.872,0,0,0,0,1,0,
39,4047.69,4257.95,4039.49,3910.26,4385.13,4223.59,4598.97,4522.56,4278.46,3871.28,4201.54,4589.74,4199.49,4684.1,1688,1723,2.88,0,0,0,0,1,0,
40,4055.9,4264.1,4040.51,3913.85,4383.59,4228.72,4592.82,4522.56,4279.49,3874.36,4201.03,4592.82,4202.05,4688.21,1689,1722,2.889,0,0,0,0,1,0,
41,4051.79,4263.08,4035.9,3910.77,4380,4228.21,4587.69,4521.03,4264.1,3878.46,4201.54,4589.23,4202.05,4687.69,1691,1723,2.896,0,0,0,0,1,0,
42,4047.69,4255.9,4033.33,3908.21,4380.51,4222.05,4588.21,4520.51,4257.95,3871.79,4201.03,4587.18,4199.49,4685.64,1693,1723,2.904,0,0,0,0,1,0,
43,4052.31,4256.92,4036.92,3913.33,4385.13,4221.54,4589.23,4522.56,4268.21,3870.77,4203.59,4590.26,4205.13,4689.23,1693,1725,2.912,0,0,0,0,1,0,
44,4051.79,4255.9,4037.95,3914.87,4386.15,4225.13,4587.18,4519.49,4265.64,3873.85,4202.05,4590.26,4202.05,4687.18,1694,1725,2.919,0,0,0,0,1,0,
45,4040.51,4244.1,4030.77,3903.59,4377.44,4226.67,4589.74,4519.49,4260.51,3867.69,4197.44,4585.64,4188.72,4677.44,1693,1725,2.927,0,0,0,0,1,0,
46,4034.36,4244.1,4029.74,3902.05,4379.49,4228.72,4600,4533.33,4273.33,3871.79,4205.64,4585.13,4197.95,4676.92,1695,1724,2.935,0,0,0,0,1,0,
47,4033.33,4252.31,4032.31,3908.21,4390.77,4234.36,4605.64,4544.62,4286.15,3887.69,4212.31,4587.18,4210.77,4683.59,1694,1724,2.943,0,0,0,0,1,0,
48,4033.33,4250.77,4033.33,3903.59,4389.23,4233.85,4605.13,4546.67,4287.18,3891.28,4209.23,4588.72,4208.21,4684.62,1694,1724,2.951,0,0,0,0,1,0,
49,4033.85,4242.56,4033.85,3893.33,4378.97,4228.21,4602.05,4553.85,4290.26,3889.23,4211.79,4587.69,4208.21,4683.08,1695,1722,2.958,0,0,0,0,1,0,
50,4028.21,4230.26,4029.23,3893.85,4375.9,4226.15,4602.56,4556.92,4292.31,3897.44,4217.44,4586.15,4215.38,4681.54,1695,1722,2.966,0,0,0,0,1,0,
51,4019.49,4217.44,4024.1,3894.36,4372.31,4223.59,4598.46,4544.62,4283.08,3899.49,4215.38,4586.15,4216.41,4678.46,1695,1720,2.975,0,0,0,0,1,0,
52,4017.44,4212.82,4027.18,3887.69,4367.18,4220.51,4590.26,4533.85,4274.36,3891.28,4209.74,4584.1,4205.64,4676.92,1695,1720,2.982,0,0,0,0,1,0,
53,4020,4211.79,4032.82,3889.23,4366.15,4223.08,4591.79,4537.44,4277.44,3891.28,4213.33,4589.23,4205.13,4679.49,1696,1717,2.99,0,0,0,0,1,0,
54,4021.54,4208.21,4033.33,3893.33,4360.51,4228.21,4598.97,4546.15,4282.56,3897.44,4224.1,4599.49,4221.54,4684.1,1695,1716,2.998,0,0,0,0,1,0,
55,4023.08,4205.13,4035.9,3896.41,4364.62,4233.85,4602.56,4547.69,4284.1,3900.51,4227.69,4602.05,4229.23,4688.72,1696,1714,3.006,0,0,0,0,1,0,
56,4022.05,4206.15,4036.92,3895.38,4378.46,4232.82,4602.05,4544.62,4283.59,3902.56,4223.59,4597.95,4221.03,4687.18,1692,1713,3.013,0,0,0,0,1,0,
57,4017.95,4208.72,4033.85,3886.15,4376.41,4232.31,4602.05,4548.21,4284.1,3908.21,4225.64,4598.46,4224.1,4684.1,1692,1713,3.021,0,0,0,0,1,0,
58,4021.54,4208.21,4040,3883.59,4370.77,4235.38,4604.1,4557.44,4292.31,3914.87,4237.44,4602.05,4239.49,4688.72,1690,1709,3.029,0,0,0,0,1,0,
59,4028.72,4203.08,4046.15,3895.9,4377.44,4233.85,4607.18,4562.05,4300.51,3917.44,4246.67,4602.56,4245.64,4694.36,1689,1709,3.037,0,0,0,0,1,0,
60,4027.69,4195.38,4043.08,3896.41,4376.41,4230.77,4606.67,4559.49,4296.92,3917.44,4244.1,4601.54,4246.67,4691.79,1690,1708,3.046,0,0,0,0,1,0,
61,4018.46,4189.74,4035.9,3881.54,4365.64,4228.72,4600,4554.36,4288.72,3919.49,4238.97,4601.54,4245.64,4686.15,1689,1709,3.052,0,0,0,0,1,0,
62,4016.92,4191.79,4035.38,3884.1,4368.72,4229.74,4597.44,4551.79,4288.72,3924.62,4245.13,4602.05,4246.15,4686.67,1690,1709,3.06,0,0,0,0,1,0,
63,4021.54,4190.77,4038.46,3894.36,4373.85,4234.36,4600.51,4552.31,4292.31,3928.72,4253.85,4601.54,4250.77,4690.26,1690,1709,3.068,0,0,0,0,1,0,
64,4019.49,4181.03,4036.92,3887.18,4369.74,4233.85,4602.05,4552.82,4289.74,3926.15,4249.23,4600.51,4255.9,4687.69,1691,1709,3.076,0,0,0,0,1,0,
65,4017.44,4182.05,4034.87,3880,4372.82,4233.85,4606.15,4557.95,4291.28,3924.62,4247.69,4601.03,4258.97,4686.67,1691,1710,3.084,0,0,0,0,1,0,
66,4021.54,4188.21,4037.95,3887.69,4374.87,4244.1,4613.33,4566.15,4301.03,3927.69,4252.82,4602.05,4256.41,4688.21,1691,1710,3.091,0,0,0,0,1,0,
67,4018.97,4182.05,4034.87,3890.26,4370.77,4249.23,4614.36,4566.67,4302.56,3929.23,4250.77,4601.03,4250.26,4684.62,1692,1711,3.099,0,0,0,0,1,0,
68,4009.74,4174.36,4024.62,3880,4368.21,4237.44,4604.62,4562.05,4295.9,3926.67,4244.1,4598.46,4247.69,4678.97,1692,1711,3.107,0,0,0,0,1,0,
69,4014.87,4174.87,4024.62,3881.54,4367.18,4236.92,4601.54,4563.59,4298.97,3923.59,4250.77,4598.97,4252.31,4683.59,1692,1711,3.115,0,0,0,0,1,0,
70,4027.18,4183.08,4035.38,3891.79,4368.72,4243.08,4606.15,4567.69,4304.62,3927.69,4264.62,4603.08,4264.1,4694.36,1694,1711,3.123,0,0,0,0,1,0,
71,4026.15,4187.69,4038.97,3886.67,4373.85,4241.03,4606.15,4565.64,4301.03,3932.31,4259.49,4602.05,4267.18,4693.85,1694,1711,3.131,0,0,0,0,1,0,
72,4023.08,4180,4033.33,3874.36,4372.82,4237.44,4606.67,4564.62,4297.44,3928.21,4247.69,4598.97,4261.03,4685.64,1696,1710,3.137,0,0,0,0,1,0,
73,4029.23,4173.33,4034.36,3880,4369.23,4238.46,4612.31,4568.72,4297.44,3925.13,4253.33,4600.51,4262.05,4686.67,1696,1711,3.151,0,0,0,0,1,0,
74,4033.85,4173.85,4040.51,3886.15,4371.28,4244.62,4615.9,4572.31,4298.97,3928.72,4255.9,4602.56,4264.62,4693.33,1699,1711,3.154,0,0,0,0,1,0,
75,4034.36,4172.31,4038.97,3878.97,4369.74,4247.18,4615.38,4568.21,4298.97,3926.67,4248.21,4601.54,4261.03,4691.79,1698,1710,3.162,0,0,0,0,1,0,
76,4035.9,4167.18,4034.36,3876.41,4360.51,4242.05,4615.38,4563.08,4297.44,3922.56,4249.23,4602.05,4258.97,4687.69,1698,1711,3.17,0,0,0,0,1,0,
77,4034.87,4164.62,4033.85,3878.97,4358.46,4241.03,4617.44,4564.62,4296.92,3923.59,4253.33,4601.03,4258.97,4689.74,1696,1710,3.178,0,0,0,0,1,0,
78,4033.33,4168.21,4035.38,3878.46,4365.13,4251.28,4620.51,4568.72,4298.97,3925.64,4250.26,4598.97,4257.95,4690.77,1692,1711,3.185,0,0,0,0,1,0,
79,4038.46,4171.79,4035.38,3877.44,4362.05,4251.28,4619.49,4570.26,4303.08,3927.18,4245.64,4598.97,4251.28,4688.21,1690,1710,3.194,0,0,0,0,1,0,
80,4039.49,4164.1,4035.38,3880.51,4353.85,4235.38,4614.87,4572.31,4306.15,3924.62,4241.03,4597.95,4241.03,4683.59,1686,1709,3.201,0,0,0,0,1,0,
81,4037.95,4159.49,4037.95,3880.51,4356.92,4231.79,4616.92,4577.95,4307.69,3925.13,4248.21,4598.46,4248.72,4686.67,1685,1709,3.209,0,0,0,0,1,0,
82,4051.28,4164.62,4044.62,3878.97,4363.59,4242.05,4622.56,4582.05,4308.21,3940,4261.03,4609.23,4276.41,4699.49,1683,1710,3.217,0,0,0,0,1,0,
83,4071.28,4161.54,4051.79,3878.97,4363.59,4246.67,4621.03,4582.56,4310.26,3953.33,4273.33,4617.95,4303.59,4714.87,1683,1709,3.224,0,0,0,0,1,0,
84,4078.46,4152.31,4050.77,3882.56,4360,4242.56,4618.97,4582.05,4309.23,3951.79,4285.64,4618.46,4326.15,4723.08,1682,1711,3.232,0,0,0,0,1,0,
85,4084.1,4148.21,4049.74,3880,4353.85,4244.62,4622.56,4581.03,4309.74,3955.38,4292.82,4623.59,4346.67,4729.23,1683,1710,3.24,0,0,0,0,1,0,
86,4100,4144.62,4054.87,3870.77,4348.72,4249.74,4628.72,4585.64,4321.03,3971.28,4300,4630.77,4367.69,4741.54,1682,1710,3.248,0,0,0,0,1,0,
87,4114.87,4137.95,4063.08,3871.79,4350.26,4247.69,4633.33,4594.87,4332.82,3984.1,4316.41,4635.9,4391.79,4755.38,1682,1711,3.256,0,0,0,0,1,0,
88,4120,4131.79,4070.26,3876.92,4347.18,4247.18,4634.87,4601.54,4332.31,3984.1,4329.23,4643.59,4410.26,4763.59,1680,1711,3.264,0,0,0,0,1,0,
89,4124.62,4127.69,4075.38,3867.18,4343.08,4248.21,4632.82,4600.51,4328.21,3990.26,4335.38,4650.26,4422.05,4766.67,1678,1713,3.271,0,0,0,0,1,0,
90,4133.33,4126.15,4078.97,3859.49,4344.1,4244.62,4630.26,4598.97,4333.33,4007.69,4348.21,4655.9,4438.97,4772.82,1679,1712,3.278,0,0,0,0,1,0,
91,4140.51,4119.49,4078.46,3865.64,4340,4245.13,4631.79,4601.54,4337.95,4017.44,4360,4662.56,4459.49,4782.05,1676,1714,3.288,0,0,0,0,1,0,
92,4140,4106.15,4076.92,3867.18,4335.9,4248.72,4633.33,4600.51,4340,4017.95,4366.15,4664.1,4469.23,4785.13,1676,1714,3.296,0,0,0,0,1,0,
93,4136.92,4101.54,4079.49,3862.56,4335.9,4247.69,4630.77,4601.54,4345.64,4028.72,4370.77,4661.03,4473.33,4780.51,1676,1713,3.303,0,0,0,0,1,0,
94,4144.1,4103.08,4086.15,3866.15,4337.95,4246.15,4632.31,4610.77,4355.38,4044.1,4377.44,4666.67,4486.15,4786.15,1676,1712,3.31,0,0,0,0,1,0,
95,4152.82,4096.92,4087.69,3865.64,4342.56,4247.69,4637.44,4620,4357.95,4047.69,4390.77,4672.31,4503.08,4797.44,1676,1714,3.318,0,0,0,0,1,0,
96,4147.18,4087.18,4082.56,3860,4343.59,4247.69,4637.44,4620,4352.31,4046.67,4391.79,4667.69,4505.64,4791.79,1679,1713,3.326,0,0,0,0,1,0,
97,4143.59,4085.13,4082.56,3861.54,4340,4253.33,4637.44,4615.9,4351.79,4052.82,4385.64,4663.08,4499.49,4782.05,1678,1713,3.334,0,0,0,0,1,0,
98,4147.18,4084.62,4085.64,3862.56,4336.92,4258.46,4644.62,4614.87,4352.82,4056.41,4389.74,4666.67,4503.08,4782.05,1680,1714,3.341,0,0,0,0,1,0,
99,4146.67,4081.03,4085.13,3857.95,4336.41,4252.31,4646.15,4615.38,4350.26,4053.85,4396.41,4672.31,4515.38,4787.69,1681,1713,3.35,0,0,0,0,1,0,
100,4146.67,4075.9,4085.13,3856.41,4333.85,4246.15,4638.97,4614.87,4351.79,4055.9,4395.38,4671.79,4521.03,4790.26,1680,1714,3.358,0,0,0,0,1,0,
101,4152.31,4070.26,4089.23,3859.49,4332.82,4246.67,4636.41,4613.85,4355.38,4058.46,4395.38,4669.23,4521.03,4791.79,1682,1713,3.365,0,0,0,0,1,0,
102,4157.95,4070.77,4091.28,3859.49,4333.33,4247.18,4635.9,4615.9,4354.87,4053.33,4396.92,4672.31,4525.64,4794.87,1680,1714,3.374,0,0,0,0,1,0,
103,4158.46,4072.31,4090.77,3859.49,4330.26,4243.59,4631.28,4614.36,4351.28,4053.33,4396.92,4679.49,4533.33,4797.95,1681,1713,3.381,0,0,0,0,1,0,
104,4159.49,4065.13,4091.28,3863.59,4325.13,4240.51,4630.77,4610.77,4351.79,4062.05,4402.05,4686.15,4541.03,4805.13,1681,1712,3.389,0,0,0,0,1,0,
105,4164.62,4062.56,4093.33,3861.54,4325.64,4240.51,4633.85,4615.38,4355.9,4068.21,4407.69,4688.21,4544.62,4810.26,1682,1712,3.396,0,0,0,0,1,0,
106,4169.23,4070.26,4094.36,3854.36,4332.82,4245.13,4635.38,4622.56,4360,4067.18,4408.21,4686.15,4544.62,4812.31,1683,1711,3.404,0,0,0,0,1,0,
107,4161.54,4069.23,4091.28,3850.26,4331.28,4249.74,4636.92,4622.56,4361.54,4065.13,4405.64,4683.59,4541.03,4810.77,1685,1711,3.412,0,0,0,0,1,0,
108,4146.67,4059.49,4086.67,3848.72,4322.56,4246.15,4636.92,4616.92,4353.85,4063.59,4400,4677.95,4535.38,4809.23,1685,1710,3.42,0,0,0,0,1,0,
109,4142.56,4060.51,4088.72,3850.77,4324.1,4237.95,4635.9,4609.23,4346.15,4057.44,4397.95,4675.9,4537.44,4811.28,1687,1712,3.428,0,0,0,0,1,0,
110,4143.08,4062.56,4093.33,3847.69,4328.72,4237.44,4633.33,4606.67,4348.72,4054.87,4404.1,4683.08,4547.69,4813.85,1687,1711,3.436,0,0,0,0,1,0,
111,4139.49,4060,4092.82,3848.21,4326.67,4244.1,4633.33,4612.82,4353.85,4066.67,4411.28,4687.69,4554.36,4816.92,1687,1713,3.443,0,0,0,0,1,0,
112,4138.46,4062.05,4094.87,3858.46,4328.21,4250.26,4637.44,4621.03,4356.92,4080.51,4417.95,4687.18,4559.49,4817.95,1688,1711,3.451,0,0,0,0,1,0,
113,4137.95,4061.03,4098.46,3857.44,4332.82,4248.21,4635.9,4625.13,4361.54,4081.03,4418.97,4687.69,4563.08,4815.38,1686,1712,3.46,0,0,0,0,1,0,
114,4130.26,4056.41,4089.74,3845.64,4326.67,4241.54,4630.77,4623.08,4363.08,4071.79,4411.28,4686.15,4560,4813.85,1686,1712,3.467,0,0,0,0,1,0,
115,4120,4054.36,4082.56,3845.13,4323.08,4240.51,4634.36,4622.56,4360.51,4065.13,4405.13,4681.54,4552.31,4811.79,1686,1712,3.475,0,0,0,0,1,0,
116,4120,4051.79,4087.18,3850.77,4330.26,4246.15,4640.51,4628.72,4363.59,4063.59,4405.13,4678.46,4545.64,4803.08,1685,1712,3.484,0,0,0,0,1,0,
117,4120.51,4050.77,4088.72,3846.15,4332.31,4248.21,4637.44,4632.31,4366.67,4064.1,4406.67,4677.95,4541.54,4797.44,1685,1712,3.49,0,0,0,0,1,0,
118,4117.44,4056.92,4086.67,3847.18,4329.23,4246.15,4636.41,4628.21,4365.13,4068.21,4410.77,4681.03,4547.18,4806.67,1686,1712,3.503,0,0,0,0,1,0,
119,4120,4057.44,4090.26,3853.33,4330.77,4245.64,4638.97,4622.56,4361.54,4073.85,4413.33,4685.13,4556.92,4814.36,1687,1712,3.507,0,0,0,0,1,0,
120,4123.08,4051.28,4092.31,3849.23,4332.31,4245.64,4636.41,4616.41,4354.36,4074.36,4408.72,4684.62,4555.38,4810.26,1688,1713,3.514,0,0,0,0,1,0,
121,4117.95,4053.85,4089.23,3846.67,4329.23,4241.03,4634.87,4612.31,4353.85,4067.69,4408.21,4681.03,4550.26,4807.18,1688,1712,3.522,0,0,0,0,1,0,
122,4113.85,4056.41,4090.26,3849.74,4327.18,4241.54,4634.36,4615.38,4358.97,4063.59,4413.85,4678.46,4553.33,4811.28,1689,1713,3.531,0,0,0,0,1,0,
123,4115.38,4053.33,4090.77,3850.26,4330.77,4246.15,4633.33,4622.05,4361.54,4069.23,4414.87,4680,4563.59,4811.28,1689,1713,3.538,0,0,0,0,1,0,
124,4111.79,4055.38,4086.15,3849.74,4337.44,4245.13,4634.87,4624.1,4365.64,4076.41,4413.85,4682.05,4567.69,4805.13,1690,1712,3.546,0,0,0,0,1,0,
125,4103.08,4057.44,4081.03,3850.26,4337.44,4242.56,4633.33,4626.15,4369.23,4072.82,4409.74,4675.38,4558.97,4797.44,1689,1711,3.553,0,0,0,0,1,0,
126,4100.51,4053.85,4078.46,3848.72,4333.85,4243.59,4631.28,4627.18,4366.15,4067.69,4408.72,4670.26,4552.31,4796.41,1688,1712,3.561,0,0,0,0,1,0,
127,4101.54,4052.82,4078.97,3846.67,4337.44,4248.21,4635.38,4625.13,4364.1,4073.33,4409.74,4676.41,4556.92,4798.97,1688,1712,3.569,0,0,0,0,1,0,
128,4104.1,4056.92,4084.62,3848.72,4340,4248.21,4636.92,4622.05,4363.59,4074.36,4406.15,4678.46,4555.38,4799.49,1688,1713,3.576,0,0,0,0,1,0,
0,4102.56,4057.44,4085.13,3850.26,4336.41,4242.05,4630.26,4621.54,4357.95,4060.51,4402.05,4670.77,4543.08,4795.38,1689,1713,3.584,0,0,0,0,1,0,
1,4096.41,4053.85,4079.49,3849.74,4332.82,4237.44,4629.74,4618.97,4351.79,4051.28,4400.51,4668.21,4538.46,4795.38,1689,1714,3.592,0,0,0,0,1,0,
2,4096.41,4053.85,4077.44,3848.21,4331.28,4242.05,4631.79,4614.36,4348.72,4053.33,4395.9,4670.26,4535.9,4794.87,1690,1711,3.6,0,0,0,0,1,0,
3,4103.08,4061.54,4079.49,3847.18,4332.31,4248.72,4625.64,4613.85,4347.18,4055.38,4391.79,4669.74,4528.21,4786.15,1690,1712,3.614,0,0,0,0,1,0,
4,4109.74,4069.23,4082.05,3854.87,4339.49,4246.67,4623.59,4618.97,4353.85,4058.97,4394.87,4670.77,4532.31,4788.21,1693,1712,3.621,0,0,0,0,1,0,
5,4117.44,4069.74,4083.08,3861.03,4344.1,4243.08,4627.69,4623.08,4362.05,4062.05,4400,4673.33,4540,4795.9,1693,1713,3.624,0,0,0,0,1,0,
6,4121.54,4067.69,4083.59,3853.85,4340.51,4243.08,4627.18,4620.51,4356.41,4058.46,4395.9,4670.26,4536.41,4788.21,1693,1715,3.637,0,0,0,0,1,0,
7,4119.49,4066.15,4081.03,3846.67,4342.05,4244.62,4628.21,4617.44,4349.23,4048.72,4385.64,4665.13,4529.74,4776.92,1692,1714,3.642,0,0,0,0,1,0,
8,4117.44,4060,4076.41,3847.18,4347.18,4249.74,4635.9,4621.03,4349.74,4043.08,4382.05,4662.05,4525.13,4779.49,1693,1715,3.647,0,0,0,0,1,0,
9,4116.92,4053.85,4070.77,3846.15,4343.59,4249.23,4636.41,4618.97,4348.21,4041.54,4382.56,4660.51,4518.46,4780,1693,1714,3.655,0,0,0,0,1,0,
10,4117.95,4056.92,4071.79,3845.13,4334.87,4239.49,4628.21,4611.79,4344.1,4038.46,4379.49,4658.97,4517.44,4775.9,1693,1714,3.662,0,0,0,0,1,0,
11,4123.59,4057.95,4078.46,3850.26,4338.97,4239.49,4628.72,4615.9,4347.69,4039.49,4382.05,4663.59,4523.59,4780.51,1695,1712,3.67,0,0,0,0,1,0,
12,4121.54,4044.1,4077.44,3846.15,4344.1,4247.69,4633.33,4621.03,4352.31,4044.1,4384.62,4665.64,4515.9,4779.49,1697,1712,3.679,0,0,0,0,1,0,
13,4117.44,4044.1,4071.28,3843.59,4344.62,4248.72,4629.74,4612.31,4348.72,4037.95,4372.31,4657.95,4495.38,4767.69,1700,1711,3.686,0,0,0,0,1,0,
14,4129.23,4072.82,4074.36,3858.97,4352.31,4247.18,4625.13,4608.72,4344.1,4026.67,4363.59,4654.36,4485.64,4766.67,1702,1712,3.694,0,0,0,0,1,0,
15,4135.9,4088.72,4075.38,3863.59,4350.26,4243.08,4625.13,4612.82,4338.97,4017.44,4359.49,4653.85,4475.38,4768.21,1707,1712,3.702,0,0,0,0,1,0,
16,4127.18,4084.1,4066.67,3853.85,4338.97,4234.87,4620,4608.21,4332.82,4004.62,4342.56,4646.67,4450.26,4755.38,1709,1711,3.716,0,0,0,0,1,0,
17,4128.21,4098.46,4066.67,3860,4348.72,4233.85,4613.85,4597.44,4327.18,3993.85,4329.74,4644.62,4431.79,4748.21,1712,1712,3.723,0,0,0,0,1,0,
18,4140,4123.08,4075.38,3872.82,4365.13,4236.41,4614.36,4592.82,4322.56,3989.23,4326.67,4646.67,4420,4753.85,1714,1711,3.726,0,0,0,0,1,0,
19,4141.03,4130.26,4070.77,3867.69,4358.46,4233.85,4609.23,4587.18,4314.36,3976.92,4315.38,4638.46,4395.9,4747.18,1716,1712,3.733,0,0,0,0,1,0,
20,4142.05,4136.41,4063.08,3864.62,4350.26,4231.28,4600.51,4576.41,4307.69,3957.44,4300.51,4631.28,4377.95,4737.44,1719,1712,3.742,0,0,0,0,1,0,
21,4153.33,4153.85,4069.74,3877.95,4359.49,4226.15,4600.51,4569.23,4306.15,3948.72,4298.46,4638.46,4378.97,4742.56,1723,1712,3.749,0,0,0,0,1,0,
22,4165.13,4173.33,4081.03,3888.72,4364.62,4224.62,4601.54,4568.72,4306.15,3945.13,4306.67,4644.62,4381.03,4751.79,1726,1712,3.756,0,0,0,0,1,0,
23,4174.36,4188.21,4087.69,3895.38,4364.62,4226.15,4597.95,4572.31,4305.64,3938.46,4305.13,4645.13,4373.85,4752.82,1726,1713,3.764,0,0,0,0,1,0,
24,4176.41,4189.23,4083.59,3901.03,4360.51,4225.64,4597.44,4567.69,4301.03,3931.28,4289.74,4641.03,4356.41,4745.13,1729,1713,3.772,0,0,0,0,1,0,
25,4170.77,4187.69,4072.31,3891.79,4351.79,4228.72,4598.46,4554.87,4288.72,3922.56,4276.41,4629.23,4338.46,4731.28,1728,1713,3.78,0,0,0,0,1,0,
26,4170.26,4198.97,4067.18,3882.56,4355.38,4228.72,4592.31,4551.79,4283.59,3915.38,4271.79,4621.03,4328.21,4726.15,1727,1714,3.787,0,0,0,0,1,0,
27,4172.31,4210.26,4066.67,3890.77,4366.15,4220.51,4586.67,4555.9,4289.74,3913.33,4265.64,4618.46,4316.92,4725.64,1726,1713,3.796,0,0,0,0,1,0,
28,4170.77,4212.82,4064.62,3898.46,4364.62,4218.46,4588.21,4553.33,4287.69,3903.08,4257.44,4615.9,4303.59,4718.97,1725,1713,3.803,0,0,0,0,1,0,
29,4169.74,4218.97,4066.67,3897.44,4366.67,4222.05,4588.72,4547.69,4277.95,3885.13,4252.82,4614.87,4292.31,4712.31,1723,1711,3.811,0,0,0,0,1,0,
30,4172.82,4230.26,4067.18,3900.51,4378.46,4215.9,4583.59,4546.67,4273.85,3880,4247.69,4610.77,4279.49,4710.77,1721,1712,3.819,0,0,0,0,1,0,
31,4173.33,4236.41,4061.03,3903.08,4377.44,4214.36,4581.54,4542.05,4271.79,3881.03,4241.03,4605.13,4270.26,4706.67,1719,1711,3.826,0,0,0,0,1,0,
32,4168.21,4233.33,4058.97,3905.13,4371.79,4224.1,4585.64,4536.92,4267.18,3872.82,4232.82,4602.05,4263.59,4702.56,1716,1711,3.835,0,0,0,0,1,0,
33,4166.15,4230.26,4063.08,3908.21,4376.41,4231.28,4582.56,4535.9,4264.1,3872.82,4228.21,4601.54,4254.36,4699.49,1713,1709,3.841,0,0,0,0,1,0,
34,4169.74,4234.87,4063.59,3908.21,4379.49,4225.64,4577.95,4540,4268.21,3879.49,4232.82,4599.49,4249.74,4695.9,1708,1707,3.85,0,0,0,0,1,0,
35,4169.23,4236.41,4063.59,3905.64,4375.9,4216.41,4580.51,4547.69,4275.38,3878.97,4232.82,4600.51,4248.21,4692.82,1705,1706,3.859,0,0,0,0,1,0,
36,4160.51,4227.18,4063.08,3903.08,4373.33,4218.97,4587.18,4547.69,4276.41,3878.46,4222.56,4602.05,4242.05,4688.21,1699,1706,3.866,0,0,0,0,1,0,
37,4154.87,4223.08,4056.41,3902.05,4371.79,4220,4584.62,4540.51,4271.28,3875.38,4217.44,4593.85,4232.31,4681.54,1698,1708,3.874,0,0,0,0,1,0,
38,4150.77,4222.56,4049.74,3903.08,4373.33,4213.33,4581.03,4539.49,4270.77,3864.1,4217.95,4585.64,4225.13,4670.77,1697,1707,3.882,0,0,0,0,1,0,
39,4140.51,4219.49,4047.69,3901.03,4377.44,4221.54,4584.62,4541.54,4270.77,3854.36,4212.31,4585.64,4221.54,4663.08,1695,1709,3.889,0,0,0,0,1,0,
40,4134.36,4222.56,4046.67,3893.85,4380.51,4234.87,4587.18,4537.44,4263.08,3854.36,4205.64,4585.13,4216.41,4663.08,1696,1710,3.896,0,0,0,0,1,0,
41,4137.95,4231.28,4045.13,3894.36,4378.97,4225.13,4587.18,4538.97,4262.05,3861.03,4207.69,4583.59,4210.26,4666.67,1695,1711,3.905,0,0,0,0,1,0,
42,4140,4232.82,4046.15,3903.59,4371.28,4214.36,4586.67,4542.05,4269.74,3865.13,4212.31,4586.67,4210.26,4668.21,1695,1711,3.912,0,0,0,0,1,0,
43,4138.46,4229.74,4046.15,3907.18,4371.79,4222.56,4582.05,4541.03,4270.26,3862.56,4209.23,4589.74,4212.31,4665.13,1693,1711,3.921,0,0,0,0,1,0,
44,4140,4234.36,4048.72,3901.54,4379.49,4225.13,4582.56,4537.95,4266.67,3865.13,4205.13,4589.23,4206.15,4664.62,1693,1710,3.929,0,0,0,0,1,0,
45,4137.44,4232.31,4050.77,3896.92,4375.9,4213.85,4582.56,4534.87,4266.15,3867.18,4200.51,4586.67,4199.49,4664.62,1690,1711,3.936,0,0,0,0,1,0,
46,4136.92,4223.59,4047.18,3900.51,4366.15,4211.79,4575.38,4535.38,4268.72,3856.92,4197.95,4585.13,4197.95,4658.97,1689,1710,3.945,0,0,0,0,1,0,
47,4138.46,4222.05,4044.1,3900,4368.21,4221.54,4575.38,4540,4267.18,3851.28,4197.44,4585.64,4192.82,4652.31,1688,1711,3.953,0,0,0,0,1,0,
48,4129.74,4222.05,4041.03,3894.36,4377.44,4221.54,4581.54,4534.36,4261.54,3853.33,4189.74,4579.49,4184.1,4651.28,1688,1710,3.96,0,0,0,0,1,0,
49,4116.92,4217.44,4033.33,3892.82,4377.95,4221.03,4578.97,4525.13,4261.03,3850.77,4181.54,4569.23,4184.1,4645.13,1689,1710,3.967,0,0,0,0,1,0,
50,4113.85,4215.9,4028.72,3893.33,4372.82,4230.26,4577.95,4530.77,4263.59,3844.1,4179.49,4566.15,4182.56,4635.9,1689,1710,3.975,0,0,0,0,1,0,
51,4120,4217.95,4032.82,3893.33,4372.82,4227.18,4587.18,4541.03,4266.67,3846.67,4184.1,4570.26,4181.03,4637.44,1690,1711,3.982,0,0,0,0,1,0,
52,4121.54,4219.49,4038.46,3894.87,4378.97,4217.95,4588.72,4540,4268.21,3853.33,4188.72,4576.92,4187.69,4644.1,1692,1710,3.991,0,0,0,0,1,0,
53,4118.97,4224.62,4041.03,3900.51,4382.05,4221.54,4583.59,4535.38,4264.1,3851.28,4192.82,4583.08,4189.74,4646.15,1690,1711,3.999,0,0,0,0,1,0,
54,4119.49,4227.69,4040.51,3903.59,4377.95,4228.21,4584.62,4535.9,4261.54,3848.72,4198.46,4584.62,4186.67,4646.15,1689,1711,4.006,0,0,0,0,1,0,
55,4123.59,4228.21,4043.08,3904.62,4374.87,4225.13,4586.67,4538.46,4270.26,3854.36,4202.56,4584.62,4192.82,4647.69,1686,1710,4.015,0,0,0,0,1,0,
56,4126.15,4231.28,4048.72,3902.05,4374.87,4221.03,4585.13,4538.46,4273.85,3865.13,4200,4586.67,4197.95,4649.23,1685,1712,4.021,0,0,0,0,1,0,
57,4123.59,4232.31,4047.18,3898.97,4375.38,4218.97,4582.56,4537.44,4266.67,3864.1,4192.31,4586.67,4194.36,4650.77,1685,1710,4.03,0,0,0,0,1,0,
58,4122.56,4231.28,4045.13,3901.03,4377.44,4215.9,4582.05,4536.41,4268.21,3860,4196.41,4586.67,4196.41,4652.31,1684,1711,4.039,0,0,0,0,1,0,
59,4121.03,4226.15,4046.67,3901.54,4376.41,4220,4584.1,4537.95,4273.85,3863.59,4203.59,4586.67,4198.97,4651.28,1686,1711,4.045,0,0,0,0,1,0,
60,4113.85,4217.95,4038.46,3896.41,4372.82,4217.95,4583.59,4537.44,4267.69,3865.64,4193.85,4584.62,4188.21,4646.67,1687,1711,4.06,0,0,0,0,1,0,
61,4106.67,4215.9,4031.79,3893.85,4372.82,4214.36,4583.08,4535.38,4262.56,3861.03,4182.05,4582.05,4181.54,4639.49,1689,1710,4.061,0,0,0,0,1,0,
62,4104.1,4217.44,4035.9,3894.87,4370.26,4217.95,4584.62,4534.87,4265.13,3853.85,4183.08,4580,4183.59,4632.31,1690,1711,4.069,0,0,0,0,1,0,
63,4104.62,4213.33,4037.95,3892.31,4369.23,4217.95,4584.62,4537.95,4263.59,3852.31,4187.69,4580.51,4182.05,4635.9,1692,1710,4.076,0,0,0,0,1,0,
64,4107.69,4214.36,4042.05,3895.9,4375.38,4216.41,4584.1,4540,4262.05,3860.51,4187.18,4584.62,4184.1,4647.69,1692,1711,4.084,0,0,0,0,1,0,
65,4109.23,4220,4048.21,3901.03,4375.9,4217.44,4585.13,4537.95,4268.21,3865.64,4190.26,4585.13,4191.79,4646.15,1693,1711,4.092,0,0,0,0,1,0,
66,4106.15,4215.9,4044.62,3896.92,4364.62,4214.36,4584.1,4535.9,4274.36,3862.56,4195.9,4583.59,4196.41,4638.46,1693,1711,4.101,0,0,0,0,1,0,
67,4104.62,4212.31,4039.49,3893.33,4365.13,4213.85,4584.1,4538.97,4273.33,3863.59,4194.36,4584.62,4199.49,4641.03,1692,1712,4.107,0,0,0,0,1,0,
68,4106.67,4215.9,4042.05,3899.49,4375.38,4223.08,4588.72,4540,4269.74,3867.69,4189.74,4585.13,4200,4643.08,1693,1711,4.116,0,0,0,0,1,0,
69,4105.64,4216.92,4043.08,3903.59,4373.33,4225.13,4587.69,4533.85,4267.69,3862.56,4191.79,4584.62,4197.44,4637.44,1692,1713,4.124,0,0,0,0,1,0,
70,4106.15,4215.9,4046.15,3898.97,4372.31,4217.44,4588.21,4539.49,4276.41,3866.15,4201.54,4587.18,4200.51,4643.08,1691,1712,4.133,0,0,0,0,1,0,
71,4107.18,4214.36,4048.72,3893.33,4377.95,4216.41,4592.82,4550.26,4281.54,3873.33,4204.1,4588.72,4203.59,4649.74,1690,1712,4.14,0,0,0,0,1,0,
72,4101.03,4207.18,4040.51,3892.31,4372.31,4220,4590.26,4541.54,4270.77,3865.64,4192.82,4585.13,4194.87,4640,1691,1712,4.148,0,0,0,0,1,0,
73,4093.33,4197.95,4035.9,3892.31,4360,4222.56,4586.67,4536.92,4267.18,3858.97,4186.15,4583.08,4189.74,4630.77,1691,1712,4.155,0,0,0,0,1,0,
74,4090.26,4196.41,4042.56,3891.28,4361.54,4214.87,4589.23,4547.18,4271.28,3861.03,4194.87,4584.1,4189.74,4629.74,1692,1711,4.163,0,0,0,0,1,0,
75,4092.82,4197.95,4045.64,3890.77,4369.74,4209.74,4588.72,4547.18,4273.33,3864.1,4202.56,4584.62,4192.82,4636.41,1691,1710,4.172,0,0,0,0,1,0,
76,4099.49,4202.05,4045.13,3890.77,4367.18,4213.85,4583.08,4536.92,4275.9,3869.74,4197.44,4591.79,4202.56,4646.15,1692,1709,4.179,0,0,0,0,1,0,
77,4104.1,4200,4049.23,3895.9,4357.44,4211.79,4581.54,4535.9,4273.85,3870.77,4196.92,4598.46,4207.18,4650.77,1692,1707,4.186,0,0,0,0,1,0,
78,4109.74,4191.28,4056.92,3902.05,4355.38,4207.69,4589.74,4542.05,4273.85,3870.26,4208.72,4600.51,4213.85,4655.38,1691,1709,4.194,0,0,0,0,1,0,
79,4120.51,4193.85,4067.18,3901.54,4361.54,4212.31,4595.9,4549.74,4284.1,3876.92,4221.03,4608.21,4235.9,4671.28,1692,1708,4.201,0,0,0,0,1,0,
80,4131.28,4202.05,4073.85,3898.97,4365.13,4218.46,4597.95,4556.41,4290.26,3885.13,4232.31,4617.95,4253.33,4688.21,1690,1709,4.21,0,0,0,0,1,0,
81,4135.9,4204.1,4072.31,3893.85,4361.54,4221.03,4597.95,4552.82,4284.1,3889.23,4238.46,4618.97,4254.87,4689.74,1691,1709,4.217,0,0,0,0,1,0,
82,4137.44,4200.51,4072.82,3890.77,4358.97,4221.03,4594.87,4552.82,4284.1,3893.33,4237.95,4616.41,4266.67,4688.21,1689,1709,4.225,0,0,0,0,1,0,
83,4142.05,4193.85,4080.51,3901.54,4360,4216.41,4594.87,4557.95,4289.23,3896.92,4241.54,4618.46,4287.69,4694.36,1688,1710,4.234,0,0,0,0,1,0,
84,4149.74,4192.31,4083.59,3908.72,4360,4215.9,4594.87,4552.31,4287.18,3899.49,4250.26,4624.62,4294.36,4701.54,1687,1711,4.241,0,0,0,0,1,0,
85,4155.38,4203.59,4085.13,3900,4361.54,4216.92,4593.33,4547.18,4285.13,3902.05,4254.36,4632.82,4296.41,4706.15,1687,1710,4.249,0,0,0,0,1,0,
86,4154.36,4207.18,4089.74,3899.49,4362.56,4213.33,4593.33,4550.26,4285.64,3897.44,4248.72,4634.36,4296.41,4707.18,1686,1711,4.257,0,0,0,0,1,0,
87,4150.77,4194.36,4088.72,3903.59,4355.9,4214.87,4592.31,4546.15,4284.1,3891.28,4242.56,4629.23,4287.18,4704.1,1687,1712,4.264,0,0,0,0,1,0,
88,4149.23,4192.31,4090.77,3900.51,4354.87,4216.92,4591.79,4543.08,4285.64,3899.49,4249.23,4634.87,4288.72,4705.64,1688,1711,4.279,0,0,0,0,1,0,
89,4153.33,4191.79,4098.97,3906.15,4361.03,4212.31,4593.85,4552.31,4294.87,3912.82,4265.64,4647.18,4309.74,4718.46,1690,1713,4.28,0,0,0,0,1,0,
90,4157.95,4183.59,4099.49,3909.74,4360,4211.79,4594.87,4557.95,4299.49,3915.38,4269.74,4644.1,4320,4724.62,1693,1711,4.287,0,0,0,0,1,0,
91,4154.36,4185.13,4089.23,3894.36,4353.33,4214.36,4593.33,4551.79,4291.79,3910.26,4256.41,4632.82,4314.36,4716.41,1692,1713,4.295,0,0,0,0,1,0,
92,4147.18,4185.64,4088.72,3884.62,4350.26,4214.36,4598.97,4552.31,4293.33,3907.69,4258.97,4632.31,4317.44,4714.87,1693,1712,4.304,0,0,0,0,1,0,
93,4140.51,4173.85,4093.33,3890.77,4343.59,4217.44,4603.08,4559.49,4300.51,3904.62,4269.74,4635.9,4320.51,4720.51,1692,1712,4.314,0,0,0,0,1,0,
94,4135.9,4163.08,4086.67,3887.18,4335.38,4217.44,4601.54,4555.9,4295.38,3906.67,4263.08,4635.38,4313.85,4716.41,1691,1712,4.319,0,0,0,0,1,0,
95,4137.44,4164.62,4086.67,3880.51,4341.54,4208.21,4604.62,4554.87,4294.36,3922.56,4260,4640.51,4317.95,4715.38,1691,1712,4.327,0,0,0,0,1,0,
96,4141.54,4166.67,4096.41,3885.64,4347.18,4206.67,4603.59,4564.62,4304.1,3931.79,4272.82,4648.21,4328.72,4721.54,1689,1712,4.334,0,0,0,0,1,0,
97,4137.95,4167.18,4094.87,3890.77,4341.54,4211.79,4599.49,4563.59,4305.13,3925.13,4278.46,4648.21,4332.31,4720.51,1687,1711,4.344,0,0,0,0,1,0,
98,4139.49,4168.21,4092.31,3889.23,4342.56,4213.33,4597.95,4557.44,4298.97,3929.23,4278.97,4649.23,4336.92,4719.49,1689,1711,4.352,0,0,0,0,1,0,
99,4148.21,4171.28,4100.51,3893.33,4350.26,4211.28,4598.46,4563.08,4300.51,3940.51,4283.59,4651.28,4341.54,4725.13,1690,1711,4.358,0,0,0,0,1,0,
100,4146.15,4170.77,4104.1,3897.44,4349.23,4208.72,4600,4562.05,4301.03,3933.33,4283.59,4649.74,4341.54,4724.62,1693,1711,4.367,0,0,0,0,1,0,
101,4138.97,4159.49,4099.49,3886.15,4342.05,4210.26,4597.95,4551.79,4297.44,3926.67,4288.21,4648.72,4348.72,4721.03,1693,1709,4.377,0,0,0,0,1,0,
102,4139.49,4150.26,4096.41,3876.92,4336.92,4209.74,4597.44,4553.85,4297.44,3936.41,4295.38,4649.74,4354.87,4724.1,1695,1708,4.381,0,0,0,0,1,0,
103,4138.46,4151.79,4093.33,3882.05,4336.41,4209.74,4600,4556.92,4299.49,3937.95,4289.23,4648.21,4348.21,4723.08,1695,1708,4.389,0,0,0,0,1,0,
104,4134.36,4155.38,4093.33,3886.15,4338.46,4214.36,4601.54,4552.82,4301.54,3931.79,4286.15,4647.18,4343.59,4718.46,1695,1709,4.398,0,0,0,0,1,0,
105,4135.9,4152.82,4097.95,3884.62,4336.92,4208.72,4601.54,4552.31,4301.03,3934.36,4292.82,4648.72,4349.23,4720,1693,1710,4.405,0,0,0,0,1,0,
106,4137.44,4146.15,4101.03,3883.59,4335.38,4201.54,4601.03,4559.49,4300.51,3939.49,4296.92,4649.74,4356.41,4726.67,1691,1711,4.413,0,0,0,0,1,0,
107,4133.85,4146.67,4100.51,3881.03,4339.49,4207.69,4600.51,4560.51,4307.18,3941.54,4298.46,4650.77,4361.54,4731.79,1691,1710,4.42,0,0,0,0,1,0,
108,4135.9,4154.36,4100.51,3882.05,4343.08,4212.31,4600,4558.97,4315.38,3947.18,4307.18,4656.92,4371.79,4734.87,1689,1711,4.428,0,0,0,0,1,0,
109,4140.51,4158.46,4105.13,3887.69,4338.97,4206.15,4598.97,4563.59,4315.38,3953.33,4314.36,4664.62,4387.69,4738.97,1689,1709,4.436,0,0,0,0,1,0,
110,4134.36,4147.69,4106.67,3885.64,4333.33,4204.62,4598.46,4564.1,4315.38,3957.95,4317.95,4665.13,4394.36,4740,1687,1709,4.444,0,0,0,0,1,0,
111,4121.54,4133.33,4097.44,3878.97,4335.38,4211.79,4603.08,4562.56,4317.95,3963.08,4315.9,4656.92,4383.59,4730.26,1689,1710,4.453,0,0,0,0,1,0,
112,4110.26,4127.18,4087.18,3872.82,4338.46,4214.36,4606.15,4563.59,4310.26,3958.97,4303.59,4647.18,4369.74,4718.97,1687,1710,4.46,0,0,0,0,1,0,
113,4108.72,4130.77,4090.26,3873.85,4331.79,4214.36,4608.21,4562.56,4298.97,3948.21,4295.38,4648.72,4366.67,4717.44,1688,1711,4.468,0,0,0,0,1,0,
114,4116.92,4132.82,4097.44,3881.54,4327.18,4214.36,4616.41,4564.1,4304.1,3945.13,4304.1,4657.44,4373.85,4722.05,1687,1711,4.476,0,0,0,0,1,0,
115,4113.85,4123.59,4095.38,3878.46,4330.26,4208.72,4612.82,4562.56,4310.26,3944.1,4308.21,4659.49,4375.9,4723.59,1687,1712,4.494,0,0,0,0,1,0,
116,4098.46,4112.31,4082.05,3856.92,4322.05,4193.85,4591.79,4547.69,4294.36,3933.85,4292.31,4647.69,4360,4714.87,1686,1711,4.494,0,0,0,0,1,0,
117,4085.64,4101.54,4069.74,3843.08,4300.51,4178.97,4575.38,4529.74,4275.9,3920,4273.33,4635.38,4334.36,4698.46,1685,1712,4.499,0,0,0,0,1,0,
118,4076.92,4091.28,4068.72,3845.64,4288.21,4172.82,4571.28,4524.1,4272.31,3907.18,4265.13,4631.79,4325.13,4691.28,1684,1711,4.509,0,0,0,0,1,0,
119,4070.77,4084.62,4067.18,3841.03,4287.18,4167.69,4569.23,4522.56,4272.31,3901.03,4267.18,4631.28,4334.87,4694.87,1682,1713,4.514,0,0,0,0,1,0,
120,4069.74,4077.95,4058.46,3832.31,4284.62,4165.64,4565.64,4523.08,4274.87,3906.67,4275.9,4628.72,4345.13,4692.31,1682,1712,4.524,0,0,0,0,1,0,
121,4068.72,4071.79,4051.79,3832.82,4281.54,4172.31,4570.77,4529.74,4283.08,3913.33,4279.49,4626.67,4351.28,4687.18,1679,1712,4.53,0,0,0,0,1,0,
122,4060.51,4065.64,4049.74,3831.79,4281.54,4177.95,4579.49,4531.28,4286.67,3918.46,4278.97,4624.1,4356.92,4688.72,1679,1713,4.539,0,0,0,0,1,0,
123,4054.36,4054.87,4045.64,3822.56,4277.44,4175.9,4578.97,4528.21,4284.1,3920.51,4284.62,4623.08,4362.56,4688.21,1678,1711,4.547,0,0,0,0,1,0,
124,4053.85,4048.21,4043.08,3816.41,4269.74,4170.77,4570.26,4528.21,4286.67,3916.92,4291.79,4623.59,4369.23,4688.21,1677,1712,4.555,0,0,0,0,1,0,
125,4056.41,4049.23,4045.64,3816.92,4268.21,4167.18,4566.67,4535.9,4296.41,3923.08,4296.41,4626.67,4384.62,4695.38,1677,1712,4.562,0,0,0,0,1,0,
126,4055.9,4045.13,4048.21,3818.46,4270.26,4173.85,4569.74,4541.54,4301.03,3944.1,4300.51,4630.77,4400,4701.03,1676,1711,4.57,0,0,0,0,1,0,
127,4051.79,4034.87,4048.21,3816.41,4267.18,4179.49,4568.72,4537.44,4294.87,3951.79,4303.08,4632.82,4399.49,4697.44,1676,1712,4.578,0,0,0,0,1,0,
128,4050.26,4029.23,4043.59,3813.33,4263.59,4173.33,4561.54,4534.87,4293.33,3941.54,4304.1,4629.74,4397.44,4694.87,1675,1712,4.586,0,0,0,0,1,0,
0,4047.69,4025.64,4038.97,3810.77,4262.05,4166.67,4560,4537.95,4297.44,3941.54,4309.23,4629.74,4407.69,4696.41,1676,1711,4.594,0,0,0,0,1,0,
1,4041.03,4022.56,4040.51,3804.1,4259.49,4167.18,4561.03,4533.33,4293.33,3949.23,4310.26,4631.28,4412.82,4692.82,1673,1712,4.601,0,0,0,0,1,0,
2,4037.44,4020,4043.59,3798.97,4256.92,4161.03,4555.38,4523.59,4289.23,3948.21,4311.79,4631.28,4412.31,4689.74,1673,1711,4.61,0,0,0,0,1,0,
3,4040,4016.92,4043.08,3802.05,4258.97,4155.38,4549.23,4523.59,4295.9,3952.31,4320,4632.82,4422.05,4695.38,1670,1711,4.617,0,0,0,0,1,0,
4,4039.49,4015.38,4041.03,3804.1,4258.97,4160,4551.79,4526.67,4299.49,3956.92,4319.49,4633.33,4429.23,4695.9,1670,1712,4.625,0,0,0,0,1,0,
5,4034.36,4009.23,4041.54,3802.05,4253.85,4163.08,4556.41,4524.1,4295.38,3951.28,4315.38,4631.79,4424.62,4691.28,1670,1711,4.633,0,0,0,0,1,0,
6,4031.79,4000.51,4043.59,3800,4252.31,4165.13,4562.05,4531.79,4296.92,3949.74,4318.97,4633.85,4425.64,4692.31,1671,1711,4.641,0,0,0,0,1,0,
7,4030.26,4001.03,4041.54,3795.9,4257.44,4171.28,4570.26,4542.05,4303.59,3958.46,4321.03,4633.85,4430.26,4693.85,1674,1710,4.648,0,0,0,0,1,0,
8,4028.72,4006.15,4039.49,3792.82,4262.56,4170.77,4573.33,4541.03,4307.18,3956.41,4316.92,4633.85,4430.26,4688.21,1677,1710,4.656,0,0,0,0,1,0,
9,4024.62,4001.54,4039.49,3792.31,4258.46,4169.74,4567.69,4539.49,4306.67,3952.31,4317.44,4633.33,4430.77,4687.69,1678,1709,4.664,0,0,0,0,1,0,
10,4020,3993.33,4035.9,3791.79,4256.41,4170.26,4563.08,4543.59,4309.23,3964.62,4322.56,4627.18,4429.23,4688.72,1680,1710,4.672,0,0,0,0,1,0,
11,4020,3995.9,4031.28,3792.31,4261.03,4165.64,4563.08,4538.46,4311.79,3974.36,4324.1,4622.05,4430.77,4684.62,1682,1708,4.68,0,0,0,0,1,0,
12,4024.62,4004.1,4034.36,3797.95,4257.95,4164.62,4558.97,4529.74,4305.64,3967.69,4324.1,4623.08,4439.49,4687.18,1682,1709,4.687,0,0,0,0,1,0,
13,4021.54,4004.62,4034.36,3802.05,4252.31,4169.23,4553.33,4525.64,4298.97,3957.95,4319.49,4620,4440.51,4688.21,1683,1708,4.696,0,0,0,0,1,0,
14,4017.44,3997.44,4031.28,3791.79,4255.38,4166.67,4553.33,4525.13,4301.54,3957.95,4322.56,4616.92,4441.54,4684.62,1682,1709,4.702,0,0,0,0,1,0,
15,4020,3995.38,4034.36,3784.1,4260.51,4162.05,4556.92,4528.72,4311.28,3970.77,4334.87,4628.72,4449.74,4690.77,1685,1710,4.711,0,0,0,0,1,0,
16,4021.54,3999.49,4035.9,3792.82,4258.46,4160.51,4555.9,4536.41,4313.85,3974.87,4334.87,4635.38,4448.72,4694.87,1686,1708,4.719,0,0,0,0,1,0,
17,4017.44,3999.49,4035.9,3798.46,4253.85,4158.97,4551.79,4540,4305.13,3956.92,4326.15,4623.59,4438.97,4687.18,1689,1710,4.727,0,0,0,0,1,0,
18,4015.9,3996.92,4035.38,3791.79,4254.36,4163.59,4556.41,4535.38,4296.41,3945.13,4327.69,4619.49,4440.51,4682.56,1693,1709,4.733,0,0,0,0,1,0,
19,4018.46,3996.41,4034.87,3791.79,4256.92,4166.67,4565.13,4533.85,4300.51,3953.85,4331.79,4625.13,4443.59,4688.21,1694,1709,4.743,0,0,0,0,1,0,
20,4013.33,3996.41,4033.85,3790.77,4254.87,4163.59,4562.56,4538.97,4305.13,3953.85,4320,4623.08,4434.36,4687.69,1695,1710,4.75,0,0,0,0,1,0,
21,4004.1,3994.36,4029.23,3781.54,4250.26,4164.62,4554.36,4534.36,4296.41,3942.56,4306.67,4614.36,4424.62,4677.95,1695,1711,4.762,0,0,0,0,1,0,
22,4000.51,3997.44,4023.59,3782.05,4255.38,4167.69,4554.87,4523.59,4291.79,3936.92,4308.72,4608.72,4424.62,4670.77,1696,1711,4.767,0,0,0,0,1,0,
23,4000.51,4002.05,4020,3786.15,4260,4166.67,4554.36,4521.03,4295.38,3939.49,4311.28,4604.1,4425.13,4668.21,1695,1712,4.774,0,0,0,0,1,0,
24,4000.51,4002.56,4018.97,3788.21,4257.95,4161.03,4551.28,4524.1,4297.44,3945.64,4311.28,4601.54,4426.15,4670.77,1694,1711,4.781,0,0,0,0,1,0,
25,4000,4004.62,4019.49,3789.74,4264.1,4163.08,4553.85,4522.56,4296.92,3946.15,4313.85,4603.08,4430.26,4671.28,1693,1713,4.789,0,0,0,0,1,0,
26,3997.44,4005.64,4021.03,3786.15,4265.13,4168.21,4555.38,4521.03,4297.44,3940.51,4310.26,4601.03,4424.62,4665.13,1692,1712,4.797,0,0,0,0,1,0,
27,3991.79,3999.49,4014.87,3784.1,4254.36,4161.54,4553.85,4523.59,4297.44,3937.95,4299.49,4598.97,4412.31,4660.51,1691,1712,4.805,0,0,0,0,1,0,
28,3986.67,3991.79,4007.69,3784.62,4253.85,4154.36,4553.85,4524.1,4297.95,3934.36,4297.44,4600,4408.72,4661.03,1691,1712,4.813,0,0,0,0,1,0,
29,3986.15,3994.36,4012.31,3783.59,4258.97,4161.03,4555.38,4524.1,4301.54,3929.23,4302.05,4600,4414.36,4662.05,1691,1712,4.82,0,0,0,0,1,0,
30,3988.21,3996.92,4015.9,3786.15,4252.31,4166.15,4556.41,4523.59,4296.41,3928.21,4299.49,4600.51,4411.28,4663.08,1693,1710,4.829,0,0,0,0,1,0,
31,3988.72,3990.26,4015.38,3789.74,4246.15,4164.1,4554.36,4521.03,4288.21,3925.64,4293.85,4600.51,4398.97,4662.05,1693,1711,4.836,0,0,0,0,1,0,
32,3983.59,3986.15,4014.87,3780.51,4253.33,4163.59,4552.82,4516.92,4286.15,3918.97,4299.49,4600.51,4396.92,4661.03,1695,1711,4.843,0,0,0,0,1,0,
33,3977.95,3988.21,4011.28,3773.85,4251.79,4161.03,4552.82,4511.79,4283.59,3916.41,4303.08,4600.51,4401.03,4661.54,1693,1711,4.851,0,0,0,0,1,0,
34,3980,3988.21,4012.31,3779.49,4243.08,4155.9,4550.77,4512.82,4283.59,3918.46,4293.85,4600,4396.92,4660,1694,1712,4.859,0,0,0,0,1,0,
35,3983.08,3991.28,4017.95,3782.05,4247.69,4156.41,4551.28,4520,4294.36,3922.56,4291.79,4600,4393.85,4660.51,1692,1711,4.866,0,0,0,0,1,0,
36,3982.56,3996.92,4019.49,3783.08,4253.33,4162.05,4555.9,4525.64,4298.46,3928.21,4298.46,4601.54,4396.92,4664.62,1690,1712,4.875,0,0,0,0,1,0,
37,3982.56,3999.49,4016.41,3786.67,4250.26,4163.59,4548.72,4517.95,4288.21,3923.59,4294.36,4598.97,4395.9,4662.56,1689,1711,4.882,0,0,0,0,1,0,
38,3991.28,4007.69,4021.54,3791.28,4253.85,4160.51,4542.05,4511.79,4286.67,3916.41,4292.31,4601.03,4401.03,4665.64,1688,1713,4.89,0,0,0,0,1,0,
39,4000,4017.95,4028.72,3795.9,4263.08,4159.49,4545.64,4516.41,4293.33,3921.54,4305.64,4610.26,4410.26,4677.95,1688,1713,4.898,0,0,0,0,1,0,
40,3996.41,4013.85,4027.18,3791.28,4264.1,4159.49,4546.67,4515.9,4290.26,3928.21,4307.18,4611.28,4406.67,4675.38,1688,1713,4.905,0,0,0,0,1,0,
41,3992.31,4008.21,4022.56,3789.74,4263.08,4160,4548.72,4512.31,4283.08,3921.54,4294.36,4602.56,4397.95,4666.67,1690,1712,4.913,0,0,0,0,1,0,
42,3992.82,4010.26,4021.03,3797.44,4262.56,4164.1,4549.23,4511.28,4281.03,3912.31,4290.26,4600,4394.36,4668.21,1692,1713,4.921,0,0,0,0,1,0,
43,3992.31,4011.79,4020,3794.36,4256.92,4165.64,4542.56,4508.72,4282.05,3911.79,4292.31,4601.54,4390.77,4668.21,1696,1712,4.93,0,0,0,0,1,0,
44,3993.33,4016.41,4020.51,3785.13,4262.05,4165.13,4543.08,4512.31,4288.72,3921.03,4296.41,4602.56,4396.41,4668.21,1700,1712,4.937,0,0,0,0,1,0,
45,3995.9,4024.1,4022.56,3789.74,4270.26,4165.13,4548.21,4520,4293.85,3928.21,4297.44,4602.05,4401.03,4671.28,1705,1713,4.945,0,0,0,0,1,0,
46,3990.26,4013.33,4017.95,3792.82,4258.46,4158.46,4540.51,4510.26,4285.13,3921.03,4286.67,4598.97,4391.79,4666.15,1710,1711,4.952,0,0,0,0,1,0,
47,3986.67,4007.69,4013.33,3786.15,4254.87,4158.46,4533.33,4499.49,4278.97,3912.82,4283.59,4597.44,4388.72,4661.54,1713,1713,4.96,0,0,0,0,1,0,
48,3994.87,4024.62,4020.51,3787.18,4267.69,4171.79,4540,4507.69,4285.64,3918.97,4296.41,4602.05,4401.03,4666.15,1718,1712,4.968,0,0,0,0,1,0,
49,3993.85,4018.97,4026.67,3786.15,4267.18,4172.31,4547.18,4517.44,4293.33,3927.69,4299.49,4604.62,4406.15,4670.77,1720,1713,4.976,0,0,0,0,1,0,
50,3986.67,3998.97,4023.08,3782.05,4259.49,4163.08,4549.74,4517.44,4295.38,3925.64,4290.26,4604.62,4392.31,4667.69,1724,1712,4.984,0,0,0,0,1,0,
51,3988.72,4010.77,4022.05,3790.26,4264.1,4164.62,4542.05,4510.26,4290.77,3913.33,4280.51,4602.05,4374.87,4658.46,1725,1711,4.992,0,0,0,0,1,0,
52,3986.67,4032.31,4018.46,3796.41,4264.1,4164.1,4532.31,4500,4278.97,3894.36,4264.62,4592.31,4356.41,4646.67,1726,1711,4.999,0,0,0,0,1,0,
53,3979.49,4034.36,4010.26,3796.41,4257.44,4154.87,4534.87,4493.85,4269.74,3881.03,4250.26,4582.05,4331.79,4644.62,1726,1711,5.008,0,0,0,0,1,0,
54,3983.59,4043.59,4010.77,3801.54,4265.64,4159.49,4540.51,4494.87,4271.28,3881.54,4248.21,4583.08,4314.36,4643.59,1727,1711,5.015,0,0,0,0,1,0,
55,3984.62,4056.41,4011.28,3805.13,4274.36,4167.18,4535.38,4496.92,4269.74,3869.74,4240.51,4582.56,4304.1,4635.9,1726,1711,5.023,0,0,0,0,1,0,
56,3976.41,4058.97,4005.64,3797.44,4272.82,4159.49,4529.74,4495.38,4264.1,3850.77,4223.08,4573.33,4286.15,4632.31,1727,1712,5.031,0,0,0,0,1,0,
57,3978.46,4067.18,4007.18,3802.05,4275.38,4157.44,4529.74,4492.31,4262.56,3848.72,4215.38,4569.74,4265.13,4632.82,1727,1710,5.038,0,0,0,0,1,0,
58,3985.13,4079.49,4012.31,3820,4282.56,4167.69,4528.72,4492.82,4262.56,3854.87,4216.41,4572.82,4254.87,4627.69,1727,1711,5.046,0,0,0,0,1,0,
59,3983.59,4086.67,4009.23,3820,4284.1,4165.64,4524.1,4490.26,4258.46,3848.72,4211.79,4569.74,4249.74,4620,1728,1709,5.056,0,0,0,0,1,0,
60,3982.56,4090.77,4005.64,3812.82,4283.59,4154.36,4522.56,4481.54,4252.82,3839.49,4205.64,4569.74,4244.62,4620.51,1726,1709,5.063,0,0,0,0,1,0,
61,3982.05,4095.9,4007.18,3815.38,4283.59,4154.36,4524.62,4477.44,4251.28,3830.26,4200.51,4568.21,4232.82,4618.46,1725,1709,5.07,0,0,0,0,1,0,
62,3973.33,4098.97,4003.59,3817.95,4282.05,4154.87,4522.05,4475.38,4245.64,3808.72,4187.18,4558.97,4206.67,4604.62,1721,1709,5.078,0,0,0,0,1,0,
63,3965.13,4098.97,3995.9,3816.92,4284.1,4152.31,4520.51,4469.23,4236.92,3798.46,4173.33,4550.26,4187.18,4598.46,1718,1711,5.085,0,0,0,0,1,0,
64,3964.1,4103.59,3989.74,3815.9,4290.77,4158.97,4521.54,4459.49,4230.26,3801.03,4167.18,4544.62,4184.62,4600,1713,1712,5.093,0,0,0,0,1,0,
65,3961.03,4114.36,3987.69,3814.36,4295.38,4163.59,4521.03,4455.38,4229.23,3796.92,4164.62,4541.54,4180.51,4592.82,1710,1712,5.101,0,0,0,0,1,0,
66,3960,4124.1,3991.79,3818.97,4296.92,4161.03,4520.51,4463.59,4236.92,3800,4167.18,4547.18,4176.41,4591.79,1705,1712,5.109,0,0,0,0,1,0,
67,3964.62,4129.23,3997.95,3829.74,4301.03,4163.08,4521.54,4471.79,4242.05,3804.1,4167.69,4551.79,4172.82,4598.97,1702,1714,5.117,0,0,0,0,1,0,
68,3972.82,4136.41,4003.59,3833.85,4306.15,4172.82,4525.13,4470.77,4238.46,3794.87,4161.03,4552.82,4165.13,4600.51,1701,1714,5.125,0,0,0,0,1,0,
69,3976.92,4140,4006.67,3831.79,4303.08,4171.79,4525.64,4469.23,4232.82,3788.72,4155.9,4555.9,4158.46,4596.41,1697,1716,5.133,0,0,0,0,1,0,
70,3971.79,4133.33,4000,3829.74,4294.87,4165.64,4522.56,4466.67,4228.72,3787.18,4149.23,4549.23,4148.21,4589.74,1696,1716,5.14,0,0,0,0,1,0,
71,3965.13,4133.33,3992.31,3831.28,4294.87,4167.18,4520.51,4461.03,4229.74,3781.54,4145.64,4538.46,4139.49,4585.64,1694,1716,5.149,0,0,0,0,1,0,
72,3960.51,4139.49,3991.79,3833.33,4304.1,4170.77,4523.08,4462.05,4232.31,3781.03,4147.69,4540.51,4137.44,4587.18,1693,1715,5.157,0,0,0,0,1,0,
73,3957.44,4137.95,3988.72,3831.28,4302.05,4172.31,4525.13,4464.62,4231.28,3776.92,4143.08,4540.51,4126.15,4577.44,1691,1714,5.164,0,0,0,0,1,0,
74,3955.38,4138.46,3984.1,3828.72,4296.41,4170.26,4523.59,4460,4229.74,3771.79,4134.87,4534.87,4117.44,4569.23,1690,1714,5.172,0,0,0,0,1,0,
75,3957.95,4149.23,3989.74,3831.28,4305.13,4166.67,4522.56,4460,4234.36,3779.49,4138.97,4536.92,4129.74,4581.03,1687,1713,5.179,0,0,0,0,1,0,
76,3959.49,4151.79,3992.82,3835.9,4310.26,4168.21,4523.08,4461.03,4233.33,3782.56,4144.62,4539.49,4134.36,4583.08,1686,1714,5.188,0,0,0,0,1,0,
77,3954.36,4147.18,3985.64,3833.85,4297.95,4168.21,4521.54,4450.26,4224.62,3770.77,4139.49,4532.82,4123.08,4567.18,1684,1714,5.195,0,0,0,0,1,0,
78,3948.72,4148.72,3977.44,3828.21,4291.28,4162.05,4516.92,4442.05,4219.49,3766.67,4129.23,4525.64,4117.95,4565.64,1686,1714,5.203,0,0,0,0,1,0,
79,3946.67,4145.13,3976.92,3835.38,4295.9,4160.51,4517.44,4448.72,4225.13,3776.41,4125.64,4524.1,4116.92,4570.77,1687,1713,5.211,0,0,0,0,1,0,
80,3944.62,4138.46,3980.51,3840.51,4300.51,4165.64,4517.95,4454.87,4230.26,3784.1,4128.72,4524.62,4115.9,4567.69,1691,1712,5.218,0,0,0,0,1,0,
81,3942.56,4138.97,3977.44,3822.56,4303.08,4167.69,4512.82,4450.77,4223.59,3773.85,4127.18,4522.56,4118.46,4567.18,1692,1711,5.226,0,0,0,0,1,0,
82,3941.03,4138.46,3971.79,3814.87,4300,4166.67,4512.31,4447.18,4221.03,3764.62,4127.69,4522.56,4120.51,4568.21,1694,1710,5.234,0,0,0,0,1,0,
83,3942.05,4134.87,3975.9,3827.69,4297.44,4168.72,4520.51,4448.21,4225.13,3777.95,4135.38,4526.15,4121.03,4566.15,1694,1710,5.242,0,0,0,0,1,0,
84,3942.56,4133.85,3978.46,3825.13,4297.44,4170.77,4523.08,4446.67,4220.51,3781.03,4134.87,4525.64,4121.54,4565.64,1694,1712,5.25,0,0,0,0,1,0,
85,3940,4133.33,3972.82,3817.95,4295.9,4167.69,4520,4445.13,4218.97,3770.26,4129.23,4523.59,4125.13,4566.67,1693,1711,5.258,0,0,0,0,1,0,
86,3942.56,4138.46,3976.41,3829.74,4300.51,4166.67,4521.03,4446.15,4230.77,3777.44,4132.31,4525.64,4135.9,4568.21,1692,1712,5.265,0,0,0,0,1,0,
87,3948.21,4146.67,3985.13,3835.9,4310.77,4168.72,4520.51,4448.21,4234.87,3789.23,4138.97,4527.69,4137.44,4572.82,1693,1710,5.274,0,0,0,0,1,0,
88,3946.67,4142.05,3981.03,3827.18,4309.23,4169.23,4518.46,4450.77,4229.23,3783.59,4133.33,4526.67,4126.15,4571.79,1691,1711,5.281,0,0,0,0,1,0,
89,3942.56,4132.31,3975.38,3825.64,4301.03,4169.74,4520.51,4451.79,4231.28,3775.38,4124.62,4523.08,4118.46,4561.54,1692,1710,5.289,0,0,0,0,1,0,
90,3941.03,4134.87,3973.85,3826.15,4302.05,4169.23,4519.49,4451.79,4231.28,3774.36,4126.67,4522.56,4118.46,4562.05,1692,1710,5.299,0,0,0,0,1,0,
91,3940,4138.97,3974.36,3821.03,4305.13,4168.72,4517.44,4450.77,4224.1,3773.85,4132.31,4524.62,4121.03,4568.72,1692,1711,5.305,0,0,0,0,1,0,
92,3937.95,4125.13,3975.38,3817.44,4298.97,4168.72,4521.03,4449.23,4222.05,3775.38,4124.1,4525.13,4122.05,4562.56,1689,1711,5.312,0,0,0,0,1,0,
93,3931.79,4110.26,3973.85,3815.38,4290.77,4168.72,4521.03,4447.69,4224.1,3772.31,4117.44,4523.08,4115.9,4552.82,1688,1711,5.32,0,0,0,0,1,0,
94,3930.77,4121.54,3973.33,3815.38,4291.79,4166.67,4516.41,4445.64,4221.54,3766.67,4123.08,4523.59,4111.28,4554.36,1686,1712,5.328,0,0,0,0,1,0,
95,3938.46,4138.97,3974.36,3821.54,4297.44,4167.69,4518.97,4442.05,4215.9,3766.15,4121.54,4524.1,4113.85,4557.44,1684,1712,5.337,0,0,0,0,1,0,
96,3941.54,4138.46,3975.38,3829.74,4297.44,4167.69,4519.49,4441.54,4217.95,3766.67,4118.46,4523.59,4114.36,4555.38,1682,1711,5.344,0,0,0,0,1,0,
97,3938.97,4137.95,3974.36,3832.31,4295.9,4167.69,4512.31,4445.64,4220.51,3765.64,4124.62,4523.08,4111.79,4555.9,1682,1711,5.351,0,0,0,0,1,0,
98,3941.54,4148.72,3974.87,3830.77,4301.54,4164.62,4510.26,4443.08,4216.92,3763.08,4118.97,4521.03,4106.67,4555.9,1683,1710,5.359,0,0,0,0,1,0,
99,3942.05,4147.18,3974.36,3827.69,4305.64,4158.46,4511.28,4438.46,4216.41,3764.1,4108.72,4518.97,4099.49,4552.31,1683,1710,5.368,0,0,0,0,1,0,
100,3937.44,4136.41,3971.79,3826.67,4306.15,4164.1,4512.31,4437.44,4217.44,3767.18,4113.33,4519.49,4103.59,4551.28,1685,1710,5.375,0,0,0,0,1,0,
101,3939.49,4136.92,3971.79,3824.62,4304.62,4168.72,4513.85,4440.51,4217.95,3766.15,4121.54,4520,4115.38,4553.33,1686,1710,5.383,0,0,0,0,1,0,
102,3944.1,4138.46,3974.87,3825.13,4302.05,4165.13,4517.95,4444.1,4219.49,3765.13,4125.13,4521.54,4114.36,4556.92,1687,1712,5.391,0,0,0,0,1,0,
103,3941.54,4131.28,3978.97,3823.59,4297.44,4162.05,4517.95,4444.1,4217.95,3766.15,4128.21,4522.05,4113.85,4562.56,1688,1710,5.399,0,0,0,0,1,0,
104,3941.03,4125.64,3982.05,3819.49,4293.85,4155.9,4511.28,4443.08,4215.9,3767.69,4127.69,4521.54,4121.54,4564.1,1687,1711,5.406,0,0,0,0,1,0,
105,3950.26,4130.26,3987.69,3823.59,4295.9,4155.9,4511.79,4448.21,4226.15,3776.92,4131.79,4529.74,4128.21,4566.15,1687,1712,5.415,0,0,0,0,1,0,
106,3954.87,4130.26,3989.23,3827.18,4300.51,4163.08,4515.38,4450.77,4230.77,3784.1,4139.49,4535.9,4134.36,4570.26,1687,1711,5.422,0,0,0,0,1,0,
107,3947.18,4128.21,3983.59,3821.03,4305.13,4167.18,4513.85,4443.59,4219.49,3775.9,4131.28,4526.67,4130.26,4564.1,1686,1710,5.43,0,0,0,0,1,0,
108,3940.51,4130.77,3980.51,3815.9,4300.51,4161.54,4513.33,4438.97,4216.41,3763.59,4120,4518.46,4117.44,4553.85,1685,1713,5.438,0,0,0,0,1,0,
109,3940.51,4128.21,3981.03,3821.03,4295.38,4156.92,4519.49,4443.08,4222.56,3763.08,4126.15,4522.56,4116.92,4555.38,1687,1711,5.445,0,0,0,0,1,0,
110,3941.03,4126.15,3978.97,3818.46,4303.08,4160.51,4524.62,4446.15,4220,3771.79,4128.21,4525.64,4125.13,4561.03,1689,1712,5.454,0,0,0,0,1,0,
111,3941.03,4131.28,3976.41,3813.85,4311.28,4161.54,4521.03,4446.15,4216.41,3775.38,4120,4521.54,4120,4558.97,1692,1712,5.461,0,0,0,0,1,0,
112,3939.49,4127.18,3973.85,3816.92,4301.54,4159.49,4513.85,4444.1,4216.41,3769.23,4116.41,4518.97,4113.85,4552.31,1693,1712,5.469,0,0,0,0,1,0,
113,3936.92,4119.49,3970.77,3817.95,4290.77,4162.56,4512.82,4441.54,4215.38,3767.18,4120.51,4517.95,4116.92,4554.36,1695,1713,5.477,0,0,0,0,1,0,
114,3941.54,4129.23,3972.82,3817.44,4300,4168.72,4519.49,4445.13,4217.95,3775.9,4134.36,4521.54,4123.59,4565.64,1697,1713,5.485,0,0,0,0,1,0,
115,3947.69,4132.82,3978.97,3818.46,4305.13,4167.18,4519.49,4447.69,4222.05,3783.59,4140.51,4524.62,4126.15,4569.23,1696,1713,5.492,0,0,0,0,1,0,
116,3943.59,4117.95,3979.49,3817.44,4294.87,4164.1,4516.41,4444.1,4219.49,3781.03,4132.31,4521.54,4121.54,4564.1,1696,1712,5.5,0,0,0,0,1,0,
117,3942.56,4121.03,3983.08,3817.44,4292.82,4162.56,4520,4444.62,4216.92,3774.87,4131.79,4525.64,4123.08,4565.64,1694,1713,5.508,0,0,0,0,1,0,
118,3950.26,4135.38,3988.21,3822.56,4301.03,4157.95,4520,4452.31,4224.1,3774.36,4140.51,4536.92,4130.77,4571.79,1694,1713,5.516,0,0,0,0,1,0,
119,3950.77,4132.82,3984.62,3823.59,4303.59,4158.46,4515.9,4451.28,4230.26,3784.62,4142.05,4533.33,4130.77,4567.69,1692,1713,5.524,0,0,0,0,1,0,
120,3941.54,4121.54,3976.41,3818.97,4303.59,4161.54,4516.41,4445.64,4224.1,3790.26,4136.41,4520.51,4123.59,4560.51,1692,1711,5.532,0,0,0,0,1,0,
121,3938.97,4121.03,3974.36,3815.9,4304.1,4164.1,4520.51,4444.62,4215.9,3783.59,4135.9,4518.97,4122.56,4558.97,1688,1711,5.54,0,0,0,0,1,0,
122,3942.05,4123.08,3974.87,3816.92,4300.51,4166.67,4523.08,4440.51,4215.38,3771.79,4134.36,4521.03,4122.56,4558.97,1688,1710,5.547,0,0,0,0,1,0,
123,3943.59,4126.15,3975.38,3821.03,4301.54,4167.18,4519.49,4437.95,4216.41,3770.77,4137.95,4519.49,4122.05,4561.54,1685,1710,5.555,0,0,0,0,1,0,
124,3945.13,4132.82,3980,3822.56,4303.59,4165.13,4515.9,4441.54,4216.92,3780.51,4147.18,4523.08,4131.79,4567.69,1683,1712,5.563,0,0,0,0,1,0,
125,3946.15,4131.79,3983.08,3822.56,4299.49,4164.1,4518.97,4444.62,4215.9,3782.05,4144.1,4524.1,4132.31,4570.26,1681,1712,5.571,0,0,0,0,1,0,
126,3942.56,4120.51,3983.59,3822.05,4297.44,4165.13,4522.56,4449.23,4217.44,3777.44,4136.92,4523.59,4113.33,4566.67,1680,1714,5.579,0,0,0,0,1,0,
127,3941.54,4112.82,3986.67,3819.49,4297.44,4169.74,4524.62,4457.95,4228.72,3787.69,4147.69,4532.82,4115.9,4565.64,1679,1713,5.586,0,0,0,0,1,0,
128,3950.77,4110.26,3988.72,3817.44,4296.41,4170.77,4528.72,4465.13,4235.9,3804.1,4170.26,4540.51,4155.38,4574.36,1677,1713,5.594,0,0,0,0,1,0,
0,3958.97,4105.13,3989.74,3814.36,4294.87,4169.23,4528.21,4467.18,4232.82,3811.28,4180.51,4538.46,4182.56,4583.08,1676,1713,5.602,0,0,0,0,1,0,
1,3959.49,4094.36,3989.74,3811.28,4289.23,4169.74,4524.62,4466.15,4234.87,3822.05,4185.13,4538.97,4186.15,4587.18,1674,1713,5.61,0,0,0,0,1,0,
2,3961.03,4082.05,3989.74,3812.82,4285.13,4169.74,4527.18,4466.15,4242.05,3837.95,4193.85,4547.69,4201.03,4592.31,1670,1711,5.617,0,0,0,0,1,0,
3,3968.21,4073.85,3994.36,3811.79,4294.87,4169.74,4527.69,4472.31,4246.15,3846.15,4202.05,4554.87,4225.13,4599.49,1669,1712,5.627,0,0,0,0,1,0,
4,3971.79,4069.74,4000,3802.05,4301.03,4169.74,4528.72,4477.95,4254.36,3854.36,4212.82,4554.87,4243.08,4606.67,1669,1711,5.633,0,0,0,0,1,0,
5,3970.77,4064.1,3996.41,3797.44,4289.23,4171.28,4533.85,4477.44,4262.56,3864.62,4221.54,4553.85,4258.46,4613.33,1667,1710,5.641,0,0,0,0,1,0,
6,3973.33,4056.41,3996.41,3803.08,4281.03,4171.28,4531.79,4475.38,4262.05,3870.26,4231.79,4561.54,4274.36,4616.41,1664,1709,5.649,0,0,0,0,1,0,
7,3980,4049.74,4005.64,3801.03,4281.03,4166.67,4529.23,4477.95,4262.05,3870.26,4244.62,4568.21,4291.79,4617.95,1662,1710,5.657,0,0,0,0,1,0,
8,3987.18,4046.15,4008.72,3793.85,4275.38,4167.69,4536.41,4485.13,4263.08,3875.9,4250.26,4569.74,4304.62,4625.13,1660,1709,5.664,0,0,0,0,1,0,
9,3991.79,4042.56,4012.31,3798.46,4272.31,4170.26,4538.97,4492.82,4263.08,3894.36,4254.36,4576.41,4315.38,4635.9,1658,1711,5.673,0,0,0,0,1,0,
10,3996.92,4035.38,4018.46,3799.49,4274.36,4165.64,4535.38,4493.85,4264.62,3909.23,4266.15,4585.13,4335.9,4638.46,1659,1710,5.68,0,0,0,0,1,0,
11,4004.1,4033.85,4016.92,3788.72,4270.77,4164.62,4538.97,4493.85,4270.26,3913.33,4276.41,4586.67,4356.41,4642.05,1658,1710,5.688,0,0,0,0,1,0,
12,4007.69,4034.36,4015.9,3787.69,4266.15,4169.23,4538.97,4494.36,4275.9,3921.03,4280.51,4589.23,4364.62,4650.77,1661,1711,5.696,0,0,0,0,1,0,
13,4003.59,4026.67,4020,3793.33,4268.72,4162.56,4535.9,4492.31,4277.95,3921.54,4284.62,4594.36,4367.18,4654.36,1662,1709,5.704,0,0,0,0,1,0,
14,3996.92,4017.44,4020,3787.69,4267.18,4160,4537.44,4492.31,4276.41,3916.92,4285.64,4592.31,4373.85,4649.74,1664,1710,5.711,0,0,0,0,1,0,
15,3994.87,4011.79,4016.41,3783.08,4261.03,4170.26,4540.51,4497.95,4277.44,3926.15,4287.69,4587.18,4381.03,4647.18,1667,1709,5.719,0,0,0,0,1,0,
16,3993.85,4004.62,4019.49,3784.62,4264.1,4165.13,4539.49,4498.46,4281.03,3935.9,4295.38,4586.15,4384.1,4650.77,1669,1711,5.727,0,0,0,0,1,0,
17,3989.74,3998.97,4020,3781.03,4268.21,4155.38,4534.87,4492.31,4279.49,3931.79,4297.44,4590.77,4387.69,4650.26,1670,1711,5.735,0,0,0,0,1,0,
18,3986.67,3997.44,4018.46,3776.92,4266.67,4160.51,4534.36,4489.74,4275.9,3935.38,4294.87,4598.97,4396.41,4648.21,1671,1713,5.743,0,0,0,0,1,0,
19,3986.15,3992.31,4019.49,3779.49,4263.59,4164.1,4536.41,4494.87,4277.44,3944.62,4296.92,4601.54,4400,4649.23,1673,1712,5.751,0,0,0,0,1,0,
20,3986.15,3985.64,4020,3781.54,4263.08,4162.05,4542.05,4502.05,4280,3937.95,4299.49,4598.97,4393.33,4652.31,1673,1713,5.759,0,0,0,0,1,0,
21,3988.21,3987.18,4021.54,3778.97,4267.69,4168.72,4551.28,4507.18,4285.64,3936.92,4302.05,4600,4395.9,4655.9,1676,1713,5.766,0,0,0,0,1,0,
22,3990.26,3991.79,4022.05,3780,4266.67,4170.77,4553.85,4506.67,4290.77,3948.72,4307.69,4602.05,4410.77,4657.44,1676,1713,5.774,0,0,0,0,1,0,
23,3987.18,3985.64,4020,3782.56,4263.08,4166.15,4551.79,4503.59,4287.69,3950.77,4308.72,4600.51,4414.87,4654.36,1680,1713,5.782,0,0,0,0,1,0,
24,3986.15,3978.46,4020,3774.87,4263.08,4167.18,4552.31,4504.62,4283.08,3947.69,4300.51,4601.03,4407.18,4650.26,1684,1712,5.79,0,0,0,0,1,0,
25,3988.21,3980.51,4020.51,3765.64,4264.62,4170.26,4554.87,4506.67,4286.67,3952.82,4300.51,4601.03,4410.77,4652.31,1688,1712,5.798,0,0,0,0,1,0,
26,3983.59,3980,4011.79,3768.72,4266.15,4171.79,4549.74,4506.67,4293.85,3957.95,4311.28,4600,4422.05,4654.36,1693,1711,5.805,0,0,0,0,1,0,
27,3979.49,3975.38,4008.21,3769.74,4267.18,4170.26,4545.13,4513.33,4300,3963.59,4314.87,4600.51,4424.62,4650.26,1696,1712,5.813,0,0,0,0,1,0,
28,3984.62,3977.95,4017.44,3766.15,4264.1,4167.69,4545.64,4516.41,4300.51,3970.26,4307.69,4600,4425.13,4646.67,1699,1713,5.821,0,0,0,0,1,0,
29,3985.64,3981.54,4017.44,3771.28,4263.59,4168.72,4543.59,4511.79,4295.38,3966.67,4308.72,4598.97,4426.15,4649.23,1700,1713,5.829,0,0,0,0,1,0,
30,3982.05,3975.38,4012.82,3770.26,4273.85,4171.28,4545.13,4511.79,4294.87,3964.1,4316.41,4599.49,4424.62,4652.31,1700,1713,5.837,0,0,0,0,1,0,
31,3982.56,3971.28,4018.46,3764.62,4273.33,4170.26,4550.77,4512.31,4295.9,3969.74,4312.31,4600.51,4422.56,4650.26,1699,1713,5.844,0,0,0,0,1,0,
32,3984.62,3976.41,4021.03,3772.82,4268.21,4169.74,4551.28,4507.18,4291.79,3965.64,4306.15,4600,4421.03,4649.74,1699,1714,5.852,0,0,0,0,1,0,
33,3984.62,3978.46,4015.9,3777.95,4274.36,4177.95,4549.23,4504.1,4290.77,3957.95,4309.23,4600,4421.03,4651.28,1697,1713,5.861,0,0,0,0,1,0,
34,3987.69,3975.38,4017.95,3768.72,4276.92,4184.1,4554.36,4508.72,4297.44,3967.69,4317.44,4601.03,4427.18,4654.36,1697,1714,5.868,0,0,0,0,1,0,
35,3989.74,3976.92,4021.54,3767.18,4274.87,4185.64,4557.44,4514.87,4300,3979.49,4321.54,4603.08,4431.28,4655.9,1696,1712,5.876,0,0,0,0,1,0,
36,3986.15,3978.97,4016.92,3772.82,4275.38,4180,4553.85,4512.82,4292.82,3968.72,4316.92,4602.05,4425.64,4652.82,1694,1713,5.883,0,0,0,0,1,0,
37,3988.72,3978.46,4014.87,3770.26,4276.41,4173.33,4552.82,4507.18,4289.23,3958.97,4317.44,4601.03,4424.62,4652.82,1694,1711,5.891,0,0,0,0,1,0,
38,3994.87,3981.03,4022.56,3770.26,4276.41,4173.85,4551.79,4507.18,4292.82,3972.82,4326.67,4607.18,4430.26,4658.46,1693,1712,5.9,0,0,0,0,1,0,
39,3994.87,3985.13,4028.21,3776.92,4276.92,4176.41,4552.31,4511.79,4291.28,3984.1,4327.18,4610.26,4429.74,4660,1692,1711,5.907,0,0,0,0,1,0,
40,3993.85,3985.13,4028.21,3781.03,4274.87,4170.77,4552.31,4507.18,4285.13,3976.41,4322.05,4606.67,4424.62,4657.95,1691,1711,5.915,0,0,0,0,1,0,
41,3996.41,3985.13,4028.21,3779.49,4273.85,4166.15,4546.67,4502.05,4283.08,3967.18,4322.05,4605.64,4422.05,4658.46,1691,1711,5.923,0,0,0,0,1,0,
42,3993.33,3987.69,4025.64,3775.38,4279.49,4170.77,4544.1,4505.13,4283.59,3963.59,4320,4605.64,4418.46,4654.87,1690,1711,5.93,0,0,0,0,1,0,
43,3987.69,3988.21,4018.46,3773.33,4277.44,4171.79,4545.64,4504.62,4280,3961.54,4313.33,4600.51,4411.79,4647.18,1690,1710,5.938,0,0,0,0,1,0,
44,3986.67,3982.56,4015.9,3771.28,4268.72,4168.21,4541.54,4493.85,4270.77,3957.95,4311.79,4598.46,4405.64,4646.67,1688,1710,5.946,0,0,0,0,1,0,
45,3987.69,3979.49,4018.97,3773.33,4266.15,4168.72,4540,4488.21,4266.67,3952.31,4314.36,4601.03,4408.21,4648.21,1688,1712,5.954,0,0,0,0,1,0,
46,3989.23,3986.67,4020.51,3779.49,4272.82,4168.21,4542.05,4498.46,4272.31,3947.18,4315.38,4601.03,4407.69,4648.21,1687,1710,5.963,0,0,0,0,1,0,
47,3990.77,3992.82,4021.54,3777.95,4280.51,4172.31,4544.62,4508.21,4278.97,3947.69,4314.36,4600,4397.95,4648.72,1686,1712,5.97,0,0,0,0,1,0,
48,3989.74,3988.21,4021.03,3770.26,4280,4181.54,4547.18,4509.23,4277.95,3955.38,4316.92,4601.03,4396.92,4647.69,1686,1711,5.978,0,0,0,0,1,0,
49,3994.87,3987.18,4021.54,3770.77,4278.97,4178.97,4548.21,4506.67,4280,3963.59,4322.05,4603.08,4412.82,4649.23,1686,1710,5.985,0,0,0,0,1,0,
50,4000.51,3994.87,4022.05,3775.9,4278.46,4169.74,4547.18,4510.77,4285.13,3961.54,4327.18,4601.03,4417.44,4655.38,1688,1710,5.993,0,0,0,0,1,0,
51,3997.44,3994.87,4019.49,3772.31,4277.44,4169.74,4549.23,4516.92,4282.05,3957.44,4331.28,4600,4411.28,4655.9,1689,1710,6.002,0,0,0,0,1,0,
52,3993.33,3992.82,4018.97,3770.77,4276.92,4172.31,4555.9,4514.36,4280.51,3958.97,4327.18,4603.08,4413.33,4651.79,1691,1711,6.009,0,0,0,0,1,0,
53,3990.26,3987.69,4019.49,3774.36,4266.15,4171.79,4551.79,4505.13,4280,3946.67,4312.31,4595.38,4405.64,4646.67,1692,1711,6.016,0,0,0,0,1,0,
54,3984.62,3976.41,4013.33,3771.79,4256.41,4170.26,4543.59,4500.51,4271.28,3928.21,4305.13,4586.67,4390.77,4640,1693,1711,6.024,0,0,0,0,1,0,
55,3987.18,3978.97,4012.31,3769.23,4270.26,4171.28,4546.15,4506.15,4270.77,3941.03,4315.9,4594.36,4401.03,4642.05,1692,1711,6.032,0,0,0,0,1,0,
56,4000.51,3998.97,4022.56,3775.38,4287.69,4173.33,4553.33,4512.82,4283.08,3966.67,4324.62,4606.15,4418.97,4653.85,1691,1711,6.04,0,0,0,0,1,0,
57,4007.18,4008.72,4030.26,3787.18,4285.13,4173.33,4554.36,4511.28,4287.18,3970.26,4323.59,4605.64,4418.46,4658.46,1689,1711,6.048,0,0,0,0,1,0,
58,4005.64,4001.54,4030.26,3789.23,4283.08,4174.36,4549.74,4508.21,4284.62,3965.13,4322.05,4604.1,4416.92,4657.44,1689,1711,6.056,0,0,0,0,1,0,
59,4005.13,4002.05,4026.15,3780,4289.74,4183.08,4553.33,4509.74,4287.18,3967.69,4322.56,4607.69,4421.03,4661.54,1689,1711,6.064,0,0,0,0,1,0,
60,4005.64,4008.72,4024.62,3774.36,4293.33,4188.21,4556.41,4511.79,4285.64,3965.13,4319.49,4607.69,4418.97,4661.54,1691,1711,6.071,0,0,0,0,1,0,
61,4004.62,4006.67,4027.18,3778.97,4291.28,4181.03,4553.33,4511.28,4280.51,3960.51,4315.9,4604.62,4413.85,4656.92,1692,1711,6.079,0,0,0,0,1,0,
62,3998.97,4005.13,4023.59,3781.54,4286.15,4173.33,4552.31,4508.72,4275.38,3955.9,4312.82,4601.03,4408.21,4654.87,1695,1710,6.087,0,0,0,0,1,0,
63,3993.33,4004.1,4016.92,3777.44,4286.15,4171.28,4553.85,4505.64,4271.28,3946.67,4307.69,4598.97,4400,4651.28,1697,1710,6.095,0,0,0,0,1,0,
64,3992.31,4001.03,4016.41,3775.9,4290.26,4169.74,4553.85,4505.13,4274.36,3945.64,4304.62,4601.03,4396.92,4647.69,1701,1710,6.103,0,0,0,0,1,0,
65,3993.33,4005.64,4015.9,3777.44,4285.64,4170.77,4554.87,4506.67,4278.46,3950.26,4303.59,4600,4402.05,4647.69,1704,1710,6.11,0,0,0,0,1,0,
66,3990.77,4004.62,4013.33,3769.74,4273.85,4177.44,4562.05,4509.74,4276.41,3948.72,4303.08,4594.87,4406.67,4647.69,1706,1713,6.118,0,0,0,0,1,0,
67,3988.21,3987.18,4016.92,3764.62,4273.85,4184.62,4569.23,4520.51,4284.1,3953.85,4304.1,4597.95,4406.67,4646.67,1710,1713,6.126,0,0,0,0,1,0,
68,3990.77,3992.82,4023.59,3775.9,4288.21,4187.18,4571.79,4529.23,4295.9,3963.59,4307.69,4605.13,4403.08,4649.23,1710,1714,6.134,0,0,0,0,1,0,
69,3991.28,4020,4020.51,3786.67,4298.46,4182.56,4567.69,4522.05,4291.28,3957.95,4305.13,4597.44,4394.87,4646.67,1712,1713,6.143,0,0,0,0,1,0,
70,3986.67,4026.15,4010.77,3782.56,4296.92,4175.9,4557.44,4509.23,4280.51,3942.56,4291.79,4585.13,4376.92,4638.97,1714,1712,6.149,0,0,0,0,1,0,
71,3984.62,4031.79,4012.31,3783.08,4301.03,4175.9,4550.77,4503.59,4275.9,3932.82,4275.38,4585.13,4353.85,4631.79,1718,1712,6.158,0,0,0,0,1,0,
72,3985.64,4052.82,4014.36,3790.26,4308.72,4181.03,4553.33,4499.49,4270.26,3922.05,4265.13,4584.62,4333.85,4623.59,1721,1712,6.165,0,0,0,0,1,0,
73,3985.64,4064.1,4006.67,3793.33,4308.72,4182.56,4553.85,4491.79,4263.08,3905.64,4254.87,4572.82,4313.33,4617.95,1726,1713,6.173,0,0,0,0,1,0,
74,3984.1,4063.59,4003.08,3796.41,4308.72,4176.92,4550.26,4489.23,4260.51,3893.33,4238.97,4565.64,4294.87,4613.85,1729,1713,6.182,0,0,0,0,1,0,
75,3984.62,4074.36,4005.64,3798.46,4312.82,4171.28,4553.33,4493.85,4255.38,3886.15,4231.79,4567.18,4281.03,4608.21,1734,1715,6.189,0,0,0,0,1,0,
76,3986.67,4087.69,4003.59,3804.62,4312.82,4169.23,4555.9,4492.31,4249.74,3877.44,4232.82,4562.56,4266.15,4606.67,1737,1713,6.196,0,0,0,0,1,0,
77,3988.72,4094.87,4002.05,3813.85,4313.33,4170.26,4548.21,4481.03,4245.13,3867.69,4224.1,4552.82,4255.38,4608.72,1738,1714,6.205,0,0,0,0,1,0,
78,3989.23,4103.59,4002.56,3812.82,4314.87,4172.82,4541.03,4474.36,4236.92,3860.51,4206.15,4550.26,4247.69,4604.1,1741,1712,6.212,0,0,0,0,1,0,
79,3989.74,4113.33,4002.05,3809.74,4316.92,4171.79,4537.95,4471.28,4230.77,3850.77,4198.46,4554.36,4232.82,4598.46,1737,1712,6.22,0,0,0,0,1,0,
80,3992.31,4125.64,4005.64,3820,4326.15,4166.15,4528.21,4465.13,4231.79,3841.03,4198.46,4552.31,4221.03,4603.59,1737,1713,6.228,0,0,0,0,1,0,
81,3992.31,4135.9,4008.21,3824.1,4333.85,4161.54,4518.97,4455.9,4228.21,3833.33,4189.23,4543.59,4217.44,4603.59,1735,1712,6.235,0,0,0,0,1,0,
82,3990.26,4140.51,4004.1,3819.49,4332.82,4165.13,4518.46,4446.15,4220,3825.13,4176.92,4537.95,4203.08,4592.31,1735,1712,6.244,0,0,0,0,1,0,
83,3983.59,4137.95,4001.54,3817.95,4331.28,4168.72,4524.62,4443.59,4218.97,3819.49,4170.77,4540,4182.56,4585.13,1734,1711,6.251,0,0,0,0,1,0,
84,3975.38,4136.92,3997.44,3815.9,4330.26,4164.62,4529.23,4447.69,4215.9,3814.36,4163.59,4536.92,4166.67,4580.51,1733,1710,6.259,0,0,0,0,1,0,
85,3971.79,4138.97,3991.79,3818.97,4329.23,4160.51,4527.18,4449.23,4209.23,3805.13,4153.33,4525.64,4150.77,4572.31,1729,1709,6.267,0,0,0,0,1,0,
86,3970.77,4135.9,3989.23,3818.46,4330.26,4164.1,4528.21,4452.82,4212.31,3797.95,4147.18,4521.54,4138.46,4565.64,1726,1710,6.275,0,0,0,0,1,0,
87,3967.18,4137.95,3986.67,3814.36,4331.79,4169.74,4530.77,4454.36,4215.38,3797.44,4151.28,4524.62,4138.46,4566.15,1722,1709,6.283,0,0,0,0,1,0,
88,3971.28,4154.87,3986.15,3821.54,4333.85,4167.69,4524.62,4448.72,4212.31,3800.51,4155.38,4524.1,4144.1,4569.74,1716,1710,6.29,0,0,0,0,1,0,
89,3983.08,4167.18,3991.28,3834.87,4338.46,4163.59,4517.95,4447.18,4213.33,3805.13,4153.33,4521.54,4148.21,4574.87,1715,1709,6.298,0,0,0,0,1,0,
90,3986.15,4165.13,3997.95,3836.92,4340.51,4163.59,4522.56,4452.82,4220,3809.74,4153.85,4526.67,4152.82,4580,1710,1709,6.306,0,0,0,0,1,0,
91,3986.15,4170.26,4001.03,3832.31,4341.03,4165.13,4524.62,4456.92,4221.54,3813.33,4162.05,4536.92,4157.44,4584.1,1708,1710,6.314,0,0,0,0,1,0,
92,3989.23,4177.44,4001.54,3832.31,4343.08,4160.51,4518.97,4453.85,4218.97,3813.33,4167.69,4538.97,4151.79,4585.64,1706,1709,6.321,0,0,0,0,1,0,
93,3986.15,4169.74,4004.62,3833.85,4345.64,4158.46,4518.97,4444.62,4210.77,3806.15,4160,4535.9,4140,4577.95,1705,1711,6.329,0,0,0,0,1,0,
94,3981.03,4164.1,4005.13,3834.87,4347.69,4165.64,4522.05,4435.38,4200.51,3794.36,4150.77,4536.41,4130.77,4571.28,1704,1709,6.337,0,0,0,0,1,0,
95,3977.44,4161.54,3996.41,3832.31,4343.08,4165.64,4523.08,4437.95,4197.95,3779.49,4142.56,4533.33,4115.38,4568.72,1703,1709,6.351,0,0,0,0,1,0,
96,3967.69,4153.85,3987.18,3825.64,4332.31,4161.54,4527.18,4442.05,4199.49,3771.28,4132.82,4522.05,4097.95,4558.46,1701,1707,6.353,0,0,0,0,1,0,
97,3958.46,4149.23,3986.67,3824.62,4328.72,4162.56,4533.33,4442.05,4205.64,3774.36,4127.18,4516.41,4092.82,4550.77,1700,1708,6.361,0,0,0,0,1,0,
98,3959.49,4155.38,3988.21,3830.77,4333.33,4164.1,4535.9,4447.18,4215.9,3781.03,4128.72,4521.03,4097.95,4553.33,1698,1706,6.369,0,0,0,0,1,0,
99,3962.56,4160.51,3989.23,3832.82,4333.33,4161.54,4537.44,4454.36,4217.44,3783.08,4130.26,4524.1,4100.51,4557.95,1693,1706,6.377,0,0,0,0,1,0,
100,3967.69,4167.69,3993.33,3828.72,4329.74,4160.51,4541.03,4456.92,4214.36,3786.15,4133.33,4522.05,4101.54,4563.59,1693,1705,6.385,0,0,0,0,1,0,
101,3975.38,4172.82,4001.54,3837.44,4331.79,4157.44,4539.49,4456.92,4215.9,3790.26,4140,4528.21,4107.69,4570.26,1688,1705,6.392,0,0,0,0,1,0,
102,3977.44,4169.74,4005.13,3846.67,4335.9,4152.82,4538.97,4458.97,4217.44,3791.28,4141.03,4537.95,4115.38,4573.33,1689,1706,6.4,0,0,0,0,1,0,
103,3975.38,4169.23,3998.46,3837.95,4334.87,4158.46,4537.95,4455.38,4213.85,3789.23,4134.87,4531.28,4112.31,4569.23,1688,1704,6.408,0,0,0,0,1,0,
104,3970.77,4173.33,3988.21,3834.36,4333.33,4164.1,4527.18,4443.59,4207.69,3781.54,4131.28,4517.95,4101.03,4563.08,1688,1706,6.415,0,0,0,0,1,0,
105,3970.26,4175.9,3988.72,3841.03,4335.9,4160.51,4521.03,4441.54,4203.59,3782.56,4132.31,4519.49,4104.62,4563.59,1689,1706,6.424,0,0,0,0,1,0,
106,3973.85,4173.33,3993.33,3835.9,4333.85,4153.33,4523.59,4445.64,4202.56,3788.21,4131.28,4525.13,4112.31,4569.74,1689,1707,6.431,0,0,0,0,1,0,
107,3967.18,4168.21,3989.74,3827.18,4326.67,4149.74,4520.51,4441.03,4201.03,3784.1,4125.64,4522.05,4105.64,4564.1,1689,1708,6.439,0,0,0,0,1,0,
108,3963.08,4168.72,3987.18,3830.77,4327.69,4150.26,4523.08,4440,4201.03,3784.1,4124.1,4523.08,4103.08,4556.92,1689,1710,6.447,0,0,0,0,1,0,
109,3968.21,4169.23,3992.82,3832.82,4331.28,4149.74,4537.44,4446.15,4208.72,3787.18,4127.69,4527.18,4106.15,4562.56,1688,1711,6.454,0,0,0,0,1,0,
110,3966.15,4161.03,3994.36,3829.23,4323.59,4151.28,4542.05,4446.67,4214.87,3781.54,4128.21,4525.13,4105.64,4561.54,1687,1712,6.464,0,0,0,0,1,0,
111,3964.1,4157.44,3991.28,3830.26,4320,4158.46,4536.92,4445.64,4215.38,3785.64,4128.21,4527.18,4117.44,4557.95,1686,1712,6.47,0,0,0,0,1,0,
112,3972.82,4167.69,3997.95,3832.31,4328.72,4164.62,4536.92,4447.69,4217.95,3801.03,4135.38,4536.41,4131.28,4568.21,1685,1713,6.485,0,0,0,0,1,0,
113,3975.9,4173.33,4005.64,3832.82,4326.67,4160.51,4531.28,4444.1,4217.44,3800.51,4140.51,4540,4127.69,4573.33,1685,1712,6.49,0,0,0,0,1,0,
114,3972.82,4168.21,4002.05,3835.38,4318.46,4151.28,4523.08,4439.49,4211.79,3791.28,4138.46,4535.9,4124.62,4569.23,1684,1713,6.494,0,0,0,0,1,0,
115,3978.46,4172.82,4001.54,3840,4322.56,4150.26,4522.05,4438.46,4211.28,3791.79,4138.46,4537.44,4135.38,4574.87,1684,1712,6.514,0,0,0,0,1,0,
116,3984.62,4179.49,4008.72,3839.49,4331.79,4152.82,4522.56,4433.85,4208.72,3791.79,4145.64,4541.54,4143.59,4581.03,1686,1712,6.55,0,0,0,0,1,0,
117,3981.54,4174.36,4008.72,3834.36,4331.79,4149.23,4520,4431.28,4201.03,3792.82,4145.13,4538.46,4137.95,4571.79,1688,1710,6.553,0,0,0,0,1,0,
118,3974.36,4170.26,4003.59,3834.87,4326.15,4147.69,4514.87,4435.38,4200,3795.38,4137.44,4534.87,4128.72,4568.72,1688,1711,6.553,0,0,0,0,1,0,
119,3971.79,4171.28,4004.62,3841.03,4324.1,4152.31,4515.9,4442.05,4207.18,3794.87,4134.87,4536.41,4122.56,4570.77,1690,1711,6.553,0,0,0,0,1,0,
120,3971.79,4168.21,4002.56,3836.41,4322.05,4155.38,4522.05,4440,4206.67,3790.77,4132.82,4536.41,4120,4566.67,1690,1711,6.553,0,0,0,0,1,0,
121,3971.79,4165.13,3994.87,3827.69,4316.41,4149.74,4523.08,4435.38,4205.64,3787.69,4128.21,4533.85,4119.49,4566.67,1692,1713,6.553,0,0,0,0,1,0,
122,3971.28,4168.21,3997.95,3830.77,4312.31,4145.64,4525.64,4440,4215.38,3790.77,4128.72,4536.41,4125.13,4570.26,1692,1712,6.559,0,0,0,0,1,0,
123,3970.77,4162.05,4000,3832.31,4314.36,4151.79,4531.28,4441.54,4212.31,3793.33,4131.79,4534.87,4131.79,4569.23,1691,1714,6.565,0,0,0,0,1,0,
124,3970.77,4156.41,3993.33,3826.67,4317.44,4158.97,4535.38,4431.79,4204.62,3794.87,4132.31,4526.67,4130.26,4567.69,1690,1714,6.573,0,0,0,0,1,0,
125,3969.74,4163.08,3992.31,3827.69,4315.9,4157.44,4534.36,4426.15,4208.21,3793.85,4132.31,4523.59,4132.31,4567.69,1689,1714,6.58,0,0,0,0,1,0,
126,3966.15,4164.1,3992.31,3830.77,4313.85,4151.28,4528.72,4424.1,4208.72,3790.77,4132.31,4523.59,4138.46,4569.23,1688,1713,6.59,0,0,0,0,1,0,
127,3963.59,4159.49,3987.18,3827.18,4316.92,4153.85,4528.21,4420.51,4203.08,3789.23,4132.31,4523.08,4142.05,4567.69,1686,1713,6.595,0,0,0,0,1,0,
128,3969.23,4164.62,3994.36,3829.74,4324.1,4162.56,4534.87,4431.28,4212.31,3795.9,4138.46,4531.28,4143.59,4566.67,1687,1712,6.605,0,0,0,0,1,0,
0,3978.46,4172.82,4007.69,3836.92,4327.18,4159.49,4537.95,4444.1,4220,3805.64,4140.51,4540.51,4146.15,4575.38,1685,1712,6.612,0,0,0,0,1,0,
1,3980,4167.18,4006.15,3833.85,4325.13,4150.77,4535.38,4444.1,4211.79,3810.77,4134.87,4538.46,4147.18,4582.05,1687,1711,6.619,0,0,0,0,1,0,
2,3975.38,4160,4003.08,3832.31,4321.03,4152.31,4535.38,4447.69,4212.82,3809.74,4135.38,4534.36,4143.08,4573.85,1687,1711,6.627,0,0,0,0,1,0,
3,3970.77,4154.87,4004.62,3833.85,4315.9,4154.36,4542.05,4459.49,4218.97,3805.64,4134.36,4535.9,4131.79,4566.67,1689,1711,6.639,0,0,0,0,1,0,
4,3968.21,4145.13,3999.49,3822.56,4312.31,4151.28,4546.67,4464.62,4217.95,3806.15,4128.21,4534.87,4121.54,4566.67,1691,1709,6.643,0,0,0,0,1,0,
5,3970.77,4138.97,3996.92,3814.36,4312.31,4153.85,4549.74,4466.67,4224.1,3817.44,4136.41,4533.33,4140.51,4572.82,1690,1709,6.65,0,0,0,0,1,0,
6,3978.97,4138.46,4002.05,3822.05,4311.28,4158.46,4549.74,4469.74,4232.82,3824.62,4156.41,4540,4171.79,4586.15,1691,1709,6.659,0,0,0,0,1,0,
7,3988.72,4139.49,4006.15,3824.1,4306.67,4156.92,4544.62,4465.64,4227.69,3825.64,4166.15,4549.74,4186.15,4598.46,1690,1709,6.666,0,0,0,0,1,0,
8,3997.95,4136.41,4008.72,3821.03,4299.49,4152.31,4543.08,4458.97,4220,3832.82,4166.67,4553.85,4200,4605.64,1689,1709,6.674,0,0,0,0,1,0,
9,4011.79,4133.85,4016.92,3826.15,4296.41,4150.26,4547.18,4456.92,4227.69,3844.1,4182.05,4558.46,4225.64,4621.03,1688,1710,6.681,0,0,0,0,1,0,
10,4028.72,4136.92,4029.23,3832.31,4301.03,4153.33,4550.26,4457.95,4235.38,3850.26,4204.1,4573.33,4250.77,4638.46,1688,1711,6.689,0,0,0,0,1,0,
