COUNTER,AF3,F7,F3, FC5, T7, P7, O1, O2,P8, T8, FC6, F4,F8, AF4,GYROX, GYROY, TIMESTAMP, FUNC_ID, FUNC_VALUE, MARKER, SYNC_SIGNAL,
7,4414.36,4029.23,4357.95,4151.79,4080,3601.54,4424.62,4447.69,4749.23,4509.23,4535.38,4341.03,4239.49,3878.46,1655,1693,0.089,0,0,0,0,
8,4407.69,4028.72,4354.87,4154.87,4075.9,3592.31,4416.92,4445.13,4750.26,4508.21,4538.46,4341.03,4242.56,3873.85,1656,1692,0.096,0,0,0,0,
9,4396.41,4024.62,4343.59,4155.38,4063.59,3588.21,4416.41,4447.18,4751.28,4508.21,4532.82,4341.03,4233.85,3863.08,1655,1692,0.104,0,0,0,0,
10,4397.44,4023.59,4348.72,4156.41,4066.67,3595.9,4425.64,4456.41,4750.26,4506.67,4533.85,4341.54,4231.28,3862.05,1655,1692,0.112,0,0,0,0,
11,4391.79,4016.41,4347.69,4148.21,4068.21,3603.59,4428.72,4458.97,4753.33,4504.62,4529.74,4337.95,4232.82,3865.64,1655,1692,0.12,0,0,0,0,
12,4373.85,4005.13,4333.85,4136.41,4058.97,3603.08,4426.15,4456.92,4762.56,4505.13,4521.54,4331.79,4229.23,3858.97,1655,1691,0.128,0,0,0,0,
13,4368.72,4001.03,4334.36,4135.9,4059.49,3605.64,4434.36,4458.46,4760,4507.18,4522.56,4326.15,4228.72,3847.69,1655,1692,0.136,0,0,0,0,
14,4379.49,4008.21,4342.05,4143.08,4071.79,3613.33,4440,4459.49,4749.23,4506.67,4523.08,4324.62,4232.31,3847.18,1656,1691,0.143,0,0,0,0,
15,4382.56,4013.85,4341.03,4138.97,4075.38,3613.85,4434.36,4458.46,4754.87,4507.18,4521.03,4327.18,4232.31,3851.79,1654,1691,0.151,0,0,0,0,
16,4374.36,4006.67,4340,4131.28,4058.97,3607.18,4431.79,4452.31,4765.64,4506.67,4521.54,4327.18,4231.79,3849.23,1655,1692,0.159,0,0,0,0,
17,4373.33,4004.62,4341.54,4140,4057.95,3607.69,4434.87,4447.18,4764.62,4509.23,4525.13,4327.69,4232.82,3847.18,1654,1691,0.167,0,0,0,0,
18,4382.05,4017.95,4345.64,4156.92,4081.54,3608.72,4434.36,4454.36,4764.62,4517.95,4534.87,4334.87,4235.38,3858.46,1655,1693,0.175,0,0,0,0,
19,4384.62,4023.59,4350.26,4160.51,4091.28,3606.67,4431.28,4460.51,4768.72,4521.54,4543.59,4340,4236.41,3863.08,1655,1692,0.182,0,0,0,0,
20,4374.87,4018.97,4345.64,4152.31,4081.03,3607.18,4434.87,4456.41,4769.23,4519.49,4538.46,4336.92,4234.87,3853.33,1654,1693,0.19,0,0,0,0,
21,4371.79,4018.97,4341.03,4151.28,4076.41,3607.69,4436.92,4458.46,4770.77,4525.64,4526.15,4333.33,4235.9,3847.18,1655,1692,0.198,0,0,0,0,
22,4374.36,4015.38,4342.05,4152.31,4075.9,3604.1,4430.77,4457.95,4769.23,4525.13,4522.05,4328.72,4235.38,3847.18,1655,1692,0.206,0,0,0,0,
23,4367.69,4006.15,4340,4142.56,4073.33,3605.64,4431.79,4448.21,4763.59,4506.67,4523.59,4324.1,4231.28,3845.64,1655,1692,0.214,0,0,0,0,
24,4366.67,4004.62,4338.97,4132.82,4073.33,3608.72,4443.08,4452.82,4768.21,4502.56,4524.62,4328.72,4232.82,3848.21,1654,1692,0.222,0,0,0,0,
25,4368.21,4004.1,4338.97,4135.9,4068.72,3604.62,4442.56,4459.49,4774.36,4515.38,4525.13,4331.28,4234.87,3848.21,1656,1692,0.229,0,0,0,0,
26,4360,4002.56,4332.82,4142.56,4067.18,3602.05,4432.82,4448.21,4766.67,4514.87,4522.05,4322.56,4222.56,3837.95,1654,1692,0.237,0,0,0,0,
27,4356.41,4006.15,4332.31,4141.03,4074.87,3602.56,4432.31,4441.54,4758.46,4505.64,4517.44,4316.41,4216.41,3833.33,1655,1693,0.245,0,0,0,0,
28,4360.51,4008.72,4333.85,4138.46,4076.41,3596.41,4431.79,4445.64,4757.95,4505.13,4517.95,4317.44,4224.1,3835.9,1654,1692,0.253,0,0,0,0,
29,4358.97,4004.62,4330.26,4137.44,4068.21,3590.77,4427.18,4444.62,4751.79,4505.64,4520,4316.41,4225.13,3834.36,1654,1694,0.261,0,0,0,0,
30,4355.38,4003.08,4330.77,4136.41,4060,3594.36,4427.69,4446.67,4749.23,4504.1,4520,4316.41,4218.46,3832.82,1654,1692,0.268,0,0,0,0,
31,4351.79,4003.08,4335.9,4135.9,4061.54,3596.92,4428.72,4456.92,4761.03,4504.62,4521.03,4320.51,4216.41,3833.33,1653,1693,0.276,0,0,0,0,
32,4350.26,4002.05,4337.95,4135.38,4070.77,3597.95,4430.26,4459.49,4767.18,4508.72,4519.49,4323.08,4215.38,3831.28,1654,1692,0.284,0,0,0,0,
33,4358.97,4003.59,4340.51,4135.38,4075.38,3601.54,4432.82,4454.87,4764.1,4518.46,4519.49,4325.64,4223.59,3837.95,1654,1692,0.292,0,0,0,0,
34,4366.67,4003.59,4341.03,4137.95,4073.33,3603.08,4432.31,4453.33,4764.62,4521.54,4522.56,4327.18,4235.9,3848.21,1655,1692,0.301,0,0,0,0,
35,4364.1,4005.13,4336.92,4140.51,4073.85,3602.05,4435.38,4454.87,4767.18,4516.92,4524.62,4325.64,4232.82,3847.69,1654,1691,0.308,0,0,0,0,
36,4366.15,4013.33,4338.46,4140.51,4076.92,3603.59,4443.59,4459.49,4765.64,4518.46,4528.21,4329.23,4234.87,3851.28,1655,1691,0.315,0,0,0,0,
37,4370.77,4016.92,4343.59,4142.05,4073.33,3603.59,4442.56,4457.95,4766.15,4522.05,4527.69,4334.87,4246.15,3861.03,1654,1691,0.323,0,0,0,0,
38,4371.79,4010.26,4342.56,4141.54,4069.23,3601.03,4433.33,4445.64,4766.15,4521.03,4525.13,4331.79,4242.05,3858.46,1655,1692,0.331,0,0,0,0,
39,4371.28,4007.69,4340,4136.92,4071.79,3602.05,4436.92,4446.67,4767.18,4521.54,4533.85,4325.64,4233.33,3853.33,1654,1691,0.339,0,0,0,0,
40,4368.21,4012.82,4340.51,4135.9,4077.44,3605.64,4445.13,4456.92,4768.21,4524.62,4540,4325.64,4235.9,3854.87,1654,1692,0.347,0,0,0,0,
41,4366.15,4015.38,4338.97,4137.44,4078.46,3606.15,4444.1,4452.31,4765.13,4518.46,4527.18,4328.21,4236.41,3852.31,1656,1691,0.355,0,0,0,0,
42,4368.21,4010.77,4337.95,4130.77,4072.82,3603.59,4441.54,4446.67,4764.62,4508.72,4520,4325.13,4232.82,3847.18,1654,1692,0.362,0,0,0,0,
43,4367.69,4004.62,4340.51,4125.64,4071.28,3604.1,4443.59,4451.28,4765.64,4506.15,4524.1,4319.49,4232.82,3847.18,1656,1692,0.37,0,0,0,0,
44,4365.13,4003.08,4336.92,4132.31,4074.87,3606.15,4443.59,4448.21,4757.44,4508.72,4521.03,4315.9,4234.36,3846.67,1655,1693,0.378,0,0,0,0,
45,4369.23,4010.77,4335.38,4140.51,4075.9,3607.18,4443.59,4441.54,4753.33,4507.69,4518.46,4319.49,4232.31,3847.69,1655,1693,0.386,0,0,0,0,
46,4375.9,4014.36,4342.56,4140,4074.36,3606.15,4445.13,4445.13,4761.03,4505.64,4523.08,4325.13,4233.33,3851.28,1655,1692,0.394,0,0,0,0,
47,4375.38,4008.72,4345.13,4136.92,4075.38,3603.59,4441.54,4443.59,4761.54,4506.15,4521.03,4323.08,4235.38,3850.77,1655,1693,0.401,0,0,0,0,
48,4367.69,4005.64,4340.51,4138.46,4076.41,3603.59,4442.05,4443.08,4758.46,4505.64,4516.92,4315.9,4230.77,3843.08,1654,1693,0.409,0,0,0,0,
49,4356.41,4004.1,4335.9,4134.87,4068.21,3605.13,4446.15,4449.74,4763.59,4504.62,4514.87,4311.28,4222.05,3837.95,1654,1692,0.417,0,0,0,0,
50,4355.38,4002.05,4332.82,4124.62,4064.62,3605.13,4445.13,4448.21,4765.13,4509.74,4517.95,4313.85,4228.72,3843.59,1654,1691,0.426,0,0,0,0,
51,4364.1,3997.95,4336.41,4122.56,4074.36,3605.64,4443.08,4449.74,4764.62,4519.49,4531.79,4324.62,4249.74,3858.97,1655,1691,0.433,0,0,0,0,
52,4366.15,3990.26,4343.08,4127.69,4077.44,3606.67,4445.64,4459.49,4768.21,4527.18,4544.1,4336.92,4264.62,3873.85,1655,1690,0.442,0,0,0,0,
53,4362.56,3984.1,4340.51,4127.18,4069.74,3605.64,4445.13,4461.54,4768.21,4526.67,4542.56,4344.1,4265.64,3877.95,1653,1691,0.448,0,0,0,0,
54,4365.64,3986.67,4338.97,4128.21,4068.21,3604.62,4442.05,4456.92,4765.13,4524.62,4540,4343.59,4264.62,3877.95,1654,1692,0.456,0,0,0,0,
55,4369.23,3988.72,4343.08,4135.9,4070.26,3604.1,4442.05,4458.46,4766.67,4523.59,4543.59,4343.08,4266.67,3881.54,1653,1691,0.464,0,0,0,0,
56,4368.72,3983.59,4343.59,4134.36,4065.13,3602.05,4443.59,4459.49,4766.15,4523.59,4542.05,4344.62,4266.67,3882.56,1654,1692,0.472,0,0,0,0,
57,4364.62,3981.03,4337.44,4122.56,4058.97,3601.03,4443.59,4460,4766.15,4523.59,4538.97,4344.1,4263.59,3877.95,1654,1693,0.48,0,0,0,0,
58,4363.59,3985.64,4335.38,4122.05,4062.05,3603.59,4443.59,4461.54,4768.21,4523.08,4540,4341.03,4263.08,3874.87,1653,1693,0.487,0,0,0,0,
59,4369.23,3989.74,4340.51,4134.36,4072.31,3605.64,4448.72,4458.46,4765.64,4522.05,4541.54,4341.54,4265.13,3875.9,1654,1692,0.495,0,0,0,0,
60,4371.28,3992.31,4343.59,4139.49,4081.54,3607.69,4457.44,4465.64,4769.74,4523.08,4542.56,4345.13,4267.18,3877.95,1654,1692,0.503,0,0,0,0,
61,4365.64,3988.72,4343.08,4130.26,4074.87,3608.21,4461.03,4474.36,4777.95,4524.1,4542.56,4342.56,4262.05,3874.36,1654,1691,0.511,0,0,0,0,
62,4360,3978.97,4339.49,4122.05,4060,3607.18,4460,4466.15,4773.33,4522.05,4535.9,4336.41,4247.69,3863.08,1654,1691,0.519,0,0,0,0,
63,4358.46,3973.33,4338.46,4123.59,4061.54,3608.72,4461.54,4458.46,4764.62,4520,4526.15,4332.31,4243.08,3859.49,1655,1690,0.527,0,0,0,0,
64,4356.92,3974.87,4339.49,4124.62,4069.74,3609.74,4462.05,4461.03,4764.62,4518.97,4522.05,4328.72,4247.18,3863.59,1656,1690,0.534,0,0,0,0,
65,4357.44,3980,4338.46,4120.51,4069.23,3606.15,4458.97,4459.49,4764.62,4518.97,4528.72,4324.62,4248.21,3862.05,1655,1689,0.542,0,0,0,0,
66,4362.56,3987.18,4337.44,4120.51,4065.13,3605.13,4457.44,4456.41,4765.64,4522.05,4537.44,4328.21,4253.85,3866.15,1656,1691,0.55,0,0,0,0,
67,4368.72,3990.77,4341.54,4127.18,4065.64,3607.18,4455.9,4461.54,4775.38,4527.69,4537.44,4334.87,4263.59,3877.95,1656,1691,0.558,0,0,0,0,
68,4369.74,3988.72,4343.59,4126.15,4065.64,3604.62,4449.74,4463.59,4783.08,4528.21,4541.03,4335.9,4266.15,3880,1656,1692,0.566,0,0,0,0,
69,4366.15,3987.18,4341.03,4125.13,4061.03,3600.51,4445.64,4461.03,4776.41,4522.56,4549.74,4334.36,4262.56,3875.38,1655,1692,0.573,0,0,0,0,
70,4369.23,3988.21,4342.05,4133.85,4057.95,3603.08,4445.64,4462.05,4767.69,4522.05,4547.18,4340.51,4262.56,3876.92,1655,1694,0.581,0,0,0,0,
71,4375.9,3989.23,4344.62,4135.38,4058.46,3601.54,4447.69,4460.51,4766.15,4528.72,4540,4344.62,4267.18,3881.54,1655,1693,0.589,0,0,0,0,
72,4371.79,3987.18,4343.08,4127.18,4056.92,3591.79,4446.15,4454.36,4761.03,4522.56,4539.49,4336.92,4260,3875.38,1653,1693,0.597,0,0,0,0,
73,4361.03,3982.05,4341.03,4122.05,4052.31,3590.77,4442.05,4451.79,4751.79,4505.13,4535.38,4334.36,4250.77,3869.23,1655,1693,0.605,0,0,0,0,
74,4367.18,3985.13,4345.64,4126.15,4055.38,3601.03,4448.21,4456.92,4756.92,4506.15,4536.41,4345.64,4261.54,3882.56,1653,1691,0.613,0,0,0,0,
75,4381.03,3989.74,4352.82,4128.72,4063.59,3606.67,4461.54,4461.54,4776.41,4527.18,4552.31,4354.36,4283.08,3898.97,1654,1692,0.62,0,0,0,0,
76,4377.95,3983.59,4351.79,4124.1,4061.54,3602.56,4456.92,4462.05,4780,4540,4558.46,4352.82,4288.21,3897.44,1654,1692,0.628,0,0,0,0,
77,4368.72,3980,4348.72,4121.03,4054.36,3599.49,4442.56,4457.95,4766.67,4538.46,4551.79,4350.26,4286.15,3892.31,1654,1692,0.636,0,0,0,0,
78,4372.31,3989.74,4351.79,4131.79,4062.05,3603.59,4449.23,4455.9,4762.56,4537.44,4558.97,4351.79,4292.31,3896.41,1654,1692,0.644,0,0,0,0,
79,4374.87,3997.44,4349.74,4141.54,4073.33,3608.21,4461.54,4459.49,4768.72,4538.46,4566.67,4352.82,4291.28,3894.87,1655,1693,0.652,0,0,0,0,
80,4365.13,3994.87,4339.49,4131.79,4071.28,3608.21,4457.44,4459.49,4768.21,4535.38,4556.92,4345.64,4279.49,3883.08,1655,1692,0.66,0,0,0,0,
81,4356.92,3989.74,4336.41,4124.62,4065.13,3606.67,4453.33,4455.9,4767.18,4535.9,4550.26,4336.41,4281.03,3874.87,1654,1693,0.667,0,0,0,0,
82,4357.44,3989.74,4341.03,4131.79,4064.62,3606.67,4458.46,4458.97,4772.31,4538.46,4556.92,4339.49,4292.82,3882.56,1655,1691,0.675,0,0,0,0,
83,4362.56,3994.36,4342.05,4136.92,4065.64,3605.13,4458.97,4460.51,4770.26,4530.26,4557.44,4345.13,4288.72,3894.36,1653,1691,0.684,0,0,0,0,
84,4369.74,3999.49,4345.13,4135.38,4065.64,3603.59,4456.41,4456.41,4763.59,4523.59,4550.26,4344.1,4277.95,3892.82,1655,1691,0.691,0,0,0,0,
85,4374.36,4004.1,4352.82,4138.46,4068.21,3603.59,4457.44,4456.92,4766.67,4528.21,4550.77,4348.21,4284.1,3891.79,1653,1690,0.699,0,0,0,0,
86,4373.33,4004.1,4352.31,4136.92,4067.18,3603.08,4457.95,4459.49,4769.74,4527.69,4554.87,4352.31,4289.74,3895.9,1654,1691,0.706,0,0,0,0,
87,4372.31,4000,4347.69,4132.82,4065.13,3603.08,4456.92,4458.97,4768.21,4530.26,4556.92,4350.77,4288.72,3896.41,1654,1689,0.714,0,0,0,0,
88,4375.9,3998.46,4347.18,4137.95,4068.72,3602.56,4451.28,4460,4767.18,4538.97,4556.92,4349.74,4288.72,3894.87,1654,1691,0.722,0,0,0,0,
89,4373.85,3992.31,4345.13,4132.31,4065.64,3601.54,4445.13,4454.87,4766.67,4531.28,4545.64,4347.18,4282.05,3890.77,1655,1691,0.73,0,0,0,0,
90,4365.13,3986.15,4342.05,4120.51,4058.97,3602.05,4446.15,4448.21,4765.13,4519.49,4536.92,4340.51,4278.46,3886.67,1655,1692,0.738,0,0,0,0,
91,4366.15,3992.31,4343.08,4129.23,4065.13,3603.59,4449.23,4449.23,4764.1,4522.56,4546.15,4340,4284.1,3890.26,1655,1691,0.745,0,0,0,0,
92,4375.38,4001.03,4344.62,4142.05,4076.92,3605.64,4447.18,4448.21,4763.08,4525.64,4555.9,4345.13,4286.15,3895.38,1655,1691,0.753,0,0,0,0,
93,4373.85,3999.49,4341.03,4135.38,4077.44,3606.15,4446.67,4448.72,4763.59,4528.21,4552.31,4348.72,4283.59,3893.85,1655,1690,0.761,0,0,0,0,
94,4368.21,3998.97,4335.9,4128.72,4071.79,3605.64,4448.72,4457.44,4769.23,4535.9,4553.33,4348.72,4291.79,3892.82,1654,1692,0.769,0,0,0,0,
95,4370.77,4001.03,4335.38,4135.9,4070.26,3605.13,4446.67,4461.03,4771.79,4538.46,4560,4345.64,4297.44,3893.85,1656,1692,0.777,0,0,0,0,
96,4369.74,3994.87,4335.38,4137.95,4071.79,3604.62,4444.62,4455.38,4771.28,4538.97,4557.44,4341.03,4288.72,3891.79,1655,1690,0.785,0,0,0,0,
97,4364.1,3992.31,4335.38,4133.33,4071.28,3603.59,4448.72,4455.9,4771.79,4539.49,4551.79,4342.05,4284.62,3891.79,1655,1691,0.792,0,0,0,0,
98,4370.26,3998.46,4340.51,4132.31,4066.67,3604.1,4454.87,4459.49,4768.21,4539.49,4554.36,4351.28,4293.85,3896.92,1655,1689,0.8,0,0,0,0,
99,4382.56,4001.54,4344.1,4134.87,4066.15,3606.67,4458.97,4458.97,4767.18,4538.97,4559.49,4356.92,4298.97,3898.97,1655,1690,0.808,0,0,0,0,
100,4383.59,4002.56,4344.62,4138.46,4075.38,3607.18,4459.49,4460,4777.95,4537.44,4565.64,4357.44,4295.9,3898.97,1656,1690,0.816,0,0,0,0,
101,4381.03,4005.13,4349.74,4137.95,4074.87,3607.18,4457.95,4460.51,4778.97,4539.49,4568.21,4358.97,4296.41,3902.56,1654,1691,0.824,0,0,0,0,
102,4384.62,4007.18,4353.33,4136.41,4068.21,3607.69,4458.97,4458.97,4767.69,4540,4561.54,4357.95,4297.95,3902.56,1656,1691,0.853,0,0,0,0,
103,4382.56,4003.08,4346.15,4136.92,4070.26,3606.67,4460.51,4458.97,4770.26,4528.21,4551.79,4349.74,4289.23,3894.36,1655,1692,0.856,0,0,0,0,
104,4372.82,3998.46,4340,4138.97,4076.41,3611.28,4458.46,4461.03,4782.05,4521.03,4550.77,4346.67,4281.54,3889.74,1655,1693,0.856,0,0,0,0,
105,4375.38,4006.15,4341.54,4140,4084.62,3621.03,4461.03,4460.51,4782.56,4533.85,4556.92,4352.82,4289.74,3893.33,1654,1692,0.857,0,0,0,0,
106,4383.59,4015.38,4343.59,4140.51,4089.23,3623.08,4465.64,4460.51,4775.9,4543.08,4557.44,4354.36,4299.49,3896.92,1655,1692,0.864,0,0,0,0,
107,4378.46,4010.26,4341.54,4138.46,4086.15,3618.46,4462.05,4455.9,4769.23,4532.31,4553.33,4345.13,4290.26,3889.74,1654,1691,0.871,0,0,0,0,
108,4370.77,4000.51,4339.49,4136.92,4080.51,3616.41,4454.87,4443.59,4763.59,4518.46,4551.79,4337.95,4277.44,3878.97,1654,1692,0.878,0,0,0,0,
109,4371.79,4001.54,4338.97,4132.31,4077.44,3620,4457.44,4444.1,4767.18,4522.56,4548.21,4337.95,4278.46,3878.97,1655,1690,0.886,0,0,0,0,
110,4372.31,4004.1,4335.9,4123.08,4074.87,3619.49,4462.05,4459.49,4778.46,4536.41,4546.15,4340,4286.67,3882.05,1654,1691,0.894,0,0,0,0,
111,4373.85,4002.05,4336.92,4125.13,4072.31,3611.28,4459.49,4462.56,4782.05,4541.54,4550.26,4341.54,4291.79,3885.13,1655,1691,0.902,0,0,0,0,
112,4380.51,4001.54,4342.05,4136.92,4078.46,3609.74,4459.49,4457.44,4781.03,4538.97,4555.38,4341.54,4294.36,3893.33,1654,1691,0.91,0,0,0,0,
113,4381.03,4002.56,4342.56,4137.44,4082.56,3613.33,4458.46,4457.44,4780.51,4537.44,4553.33,4344.62,4294.36,3895.9,1654,1691,0.918,0,0,0,0,
114,4375.9,4005.13,4338.46,4132.31,4079.49,3607.18,4449.74,4456.41,4781.03,4534.87,4551.79,4350.77,4287.69,3890.77,1654,1692,0.925,0,0,0,0,
115,4381.03,4008.21,4344.62,4137.44,4080,3603.59,4444.1,4458.46,4782.05,4538.97,4555.9,4357.44,4286.67,3893.33,1654,1692,0.933,0,0,0,0,
116,4385.13,4006.15,4348.21,4137.95,4075.9,3604.62,4445.13,4458.46,4775.9,4535.9,4549.23,4354.36,4288.21,3894.87,1654,1692,0.941,0,0,0,0,
117,4371.79,3998.97,4337.44,4124.1,4058.97,3594.36,4442.56,4446.67,4760,4512.82,4535.9,4343.59,4281.54,3883.59,1654,1692,0.949,0,0,0,0,
118,4363.59,3996.41,4334.36,4119.49,4058.46,3590.77,4440,4440,4755.38,4503.59,4539.49,4341.54,4272.31,3874.87,1654,1693,0.957,0,0,0,0,
119,4376.92,4003.59,4346.67,4132.82,4075.38,3602.56,4444.1,4444.1,4764.1,4520,4553.33,4350.77,4277.44,3882.05,1655,1691,0.965,0,0,0,0,
120,4389.23,4008.72,4354.87,4142.05,4076.92,3605.64,4448.21,4449.74,4765.64,4527.69,4554.87,4353.33,4289.23,3894.36,1654,1692,0.972,0,0,0,0,
121,4382.56,4007.18,4350.26,4139.49,4072.31,3603.08,4447.18,4457.44,4772.31,4523.59,4552.82,4349.23,4289.74,3894.87,1655,1690,0.98,0,0,0,0,
122,4374.87,4005.13,4345.13,4136.41,4076.41,3603.59,4446.15,4457.95,4781.03,4523.59,4555.9,4349.23,4284.62,3886.67,1654,1691,0.988,0,0,0,0,
123,4373.33,3999.49,4342.56,4128.72,4073.33,3603.59,4445.64,4446.15,4773.33,4520.51,4545.64,4343.59,4276.41,3879.49,1655,1690,0.996,0,0,0,0,
124,4368.21,3994.36,4340,4120.51,4067.18,3602.56,4444.1,4441.54,4762.56,4517.95,4533.33,4335.38,4272.82,3877.44,1654,1690,1.005,0,0,0,0,
125,4367.18,3997.95,4341.03,4123.59,4068.21,3602.56,4443.08,4445.13,4764.62,4522.56,4540,4339.49,4278.46,3879.49,1655,1690,1.011,0,0,0,0,
126,4372.82,4001.03,4341.03,4125.64,4065.13,3601.03,4441.54,4442.56,4764.62,4521.54,4545.13,4342.56,4278.97,3878.97,1654,1690,1.019,0,0,0,0,
127,4373.85,4002.56,4340.51,4123.59,4067.18,3602.56,4441.54,4442.05,4762.05,4520,4537.95,4340.51,4274.36,3877.95,1654,1691,1.027,0,0,0,0,
128,4371.28,4006.15,4342.05,4124.62,4072.82,3604.1,4443.59,4446.15,4765.13,4525.13,4536.41,4341.03,4276.92,3880.51,1655,1690,1.035,0,0,0,0,
0,4371.79,4006.67,4340,4128.21,4071.28,3601.03,4441.03,4444.1,4767.18,4525.13,4541.03,4338.46,4278.46,3878.46,1654,1691,1.043,0,0,0,0,
1,4376.92,4006.67,4337.95,4135.9,4072.31,3601.03,4439.49,4441.54,4765.13,4518.97,4536.92,4334.87,4272.31,3874.87,1655,1691,1.05,0,0,0,0,
2,4381.03,4011.79,4341.03,4142.05,4078.46,3605.64,4442.05,4450.77,4770.26,4520,4538.46,4340.51,4275.38,3882.05,1654,1690,1.058,0,0,0,0,
3,4383.59,4015.38,4343.59,4140,4077.44,3607.18,4438.46,4458.97,4781.03,4525.64,4552.82,4345.13,4283.59,3894.36,1655,1691,1.066,0,0,0,0,
4,4384.1,4011.28,4341.54,4135.9,4074.36,3601.03,4429.74,4451.79,4778.97,4526.15,4552.31,4341.03,4283.59,3892.82,1654,1691,1.074,0,0,0,0,
5,4383.08,4007.69,4340.51,4132.82,4076.41,3600,4428.72,4444.1,4766.67,4524.62,4538.97,4342.05,4281.03,3882.56,1655,1690,1.083,0,0,0,0,
6,4375.9,4004.1,4335.38,4128.72,4071.28,3603.59,4428.21,4442.56,4762.56,4516.41,4535.9,4337.95,4272.82,3875.9,1655,1690,1.09,0,0,0,0,
7,4373.33,3997.95,4333.33,4122.05,4064.62,3595.38,4420.51,4438.46,4764.62,4509.23,4536.92,4327.18,4264.1,3875.9,1656,1691,1.097,0,0,0,0,
8,4380.51,3996.92,4342.56,4120.51,4068.21,3587.69,4420,4432.82,4763.08,4514.87,4537.44,4331.28,4268.21,3878.97,1655,1690,1.105,0,0,0,0,
9,4380.51,4003.08,4338.97,4125.64,4074.36,3598.46,4427.18,4434.87,4761.54,4516.92,4538.97,4337.95,4272.31,3880,1655,1691,1.113,0,0,0,0,
10,4374.36,4006.15,4325.13,4127.18,4074.36,3606.15,4426.15,4438.97,4765.13,4508.72,4534.87,4330.77,4267.69,3880,1657,1691,1.121,0,0,0,0,
11,4368.21,3995.9,4323.08,4123.08,4067.18,3595.9,4415.9,4434.36,4762.56,4506.15,4525.13,4320.51,4263.08,3877.44,1655,1692,1.129,0,0,0,0,
12,4363.08,3989.74,4324.1,4118.97,4060,3587.18,4410.77,4426.67,4755.9,4507.69,4521.03,4318.97,4261.03,3870.77,1656,1692,1.136,0,0,0,0,
13,4367.69,3998.97,4322.05,4117.95,4055.9,3588.21,4413.33,4430.77,4759.49,4507.18,4529.23,4322.56,4261.03,3870.77,1654,1691,1.144,0,0,0,0,
14,4381.03,4007.18,4332.31,4125.13,4061.54,3590.26,4414.87,4441.03,4768.72,4508.72,4536.41,4327.69,4265.13,3879.49,1655,1691,1.152,0,0,0,0,
15,4383.08,4005.13,4337.44,4133.33,4069.23,3590.26,4414.87,4438.97,4768.72,4510.77,4531.28,4326.67,4266.15,3880,1654,1690,1.16,0,0,0,0,
16,4375.38,4002.05,4328.72,4127.18,4066.67,3587.18,4413.33,4430.26,4757.44,4506.67,4521.54,4320,4262.05,3874.36,1654,1692,1.168,0,0,0,0,
17,4378.97,4004.1,4332.82,4117.95,4062.05,3587.18,4413.33,4426.15,4749.23,4503.59,4523.08,4326.67,4264.62,3877.44,1654,1691,1.176,0,0,0,0,
18,4384.62,4004.1,4344.62,4120.51,4063.08,3589.74,4415.38,4430.26,4753.85,4503.08,4532.31,4333.33,4266.67,3882.05,1655,1692,1.183,0,0,0,0,
19,4381.03,4001.54,4340,4124.62,4059.49,3589.74,4413.85,4440,4766.15,4506.67,4535.9,4331.28,4266.15,3881.03,1654,1691,1.191,0,0,0,0,
20,4378.97,4002.56,4334.36,4124.62,4061.03,3588.72,4413.85,4442.56,4769.74,4511.28,4536.41,4332.82,4271.79,3882.05,1655,1693,1.199,0,0,0,0,
21,4380,4002.56,4338.46,4123.08,4071.28,3588.72,4413.85,4435.38,4764.1,4509.74,4535.9,4335.38,4273.85,3881.54,1656,1691,1.208,0,0,0,0,
22,4378.97,3998.46,4340.51,4120.51,4068.72,3586.67,4408.72,4428.72,4758.97,4506.67,4531.28,4328.72,4266.67,3880,1654,1692,1.215,0,0,0,0,
23,4380,3997.44,4339.49,4126.15,4059.49,3587.18,4405.13,4424.62,4759.49,4508.21,4523.08,4322.56,4263.08,3880,1657,1693,1.222,0,0,0,0,
24,4384.1,4003.59,4337.44,4135.38,4066.67,3591.28,4410.26,4423.08,4763.59,4508.21,4521.54,4324.1,4265.64,3878.97,1656,1692,1.23,0,0,0,0,
25,4388.21,4011.79,4337.44,4136.92,4077.95,3591.79,4413.33,4427.69,4764.62,4506.67,4531.79,4328.72,4271.28,3881.54,1656,1693,1.239,0,0,0,0,
26,4390.26,4016.41,4342.56,4133.85,4073.85,3592.31,4413.33,4433.33,4764.1,4514.87,4540,4335.9,4278.46,3893.33,1656,1693,1.246,0,0,0,0,
27,4388.72,4013.85,4338.97,4135.9,4066.67,3591.79,4413.85,4434.36,4765.64,4522.56,4537.44,4333.33,4280,3894.36,1655,1693,1.254,0,0,0,0,
28,4386.15,4012.31,4333.33,4136.92,4068.21,3590.26,4417.44,4436.41,4766.67,4515.38,4528.72,4326.15,4276.41,3882.05,1655,1691,1.262,0,0,0,0,
29,4384.1,4013.85,4334.87,4130.26,4075.38,3596.41,4424.1,4440.51,4768.72,4509.23,4524.1,4325.13,4270.77,3876.92,1655,1691,1.269,0,0,0,0,
30,4380.51,4009.23,4332.31,4122.56,4077.44,3599.49,4425.64,4442.05,4768.21,4509.23,4523.59,4317.44,4262.05,3876.92,1655,1690,1.277,0,0,0,0,
31,4378.97,4001.54,4326.15,4120,4068.21,3591.79,4418.97,4440,4765.64,4506.15,4521.54,4312.31,4257.95,3873.85,1654,1691,1.285,0,0,0,0,
32,4380.51,4002.05,4327.18,4122.56,4066.67,3587.18,4417.95,4438.46,4768.72,4508.72,4523.08,4322.56,4266.67,3877.44,1654,1690,1.293,0,0,0,0,
33,4377.95,4002.05,4327.69,4121.03,4066.67,3589.74,4418.97,4433.33,4764.1,4510.26,4521.03,4323.08,4267.69,3879.49,1653,1691,1.301,0,0,0,0,
34,4381.54,4002.05,4329.74,4118.46,4060.51,3589.23,4412.82,4425.13,4753.33,4502.56,4515.9,4314.87,4260,3877.44,1655,1690,1.309,0,0,0,0,
35,4394.36,4013.85,4339.49,4129.23,4065.64,3587.69,4410.26,4429.23,4758.46,4511.79,4528.72,4327.18,4270.77,3886.15,1654,1690,1.316,0,0,0,0,
36,4400.51,4023.08,4344.62,4139.49,4078.46,3588.72,4413.33,4440.51,4769.23,4530.26,4540.51,4339.49,4282.56,3900,1654,1692,1.324,0,0,0,0,
37,4396.41,4016.92,4340.51,4131.28,4076.92,3586.15,4411.79,4443.59,4767.18,4522.56,4530.26,4329.74,4272.31,3896.41,1656,1691,1.332,0,0,0,0,
38,4393.33,4013.33,4338.97,4126.15,4068.72,3586.67,4412.31,4442.56,4764.1,4502.56,4526.15,4325.13,4264.1,3882.05,1655,1692,1.34,0,0,0,0,
39,4396.41,4018.97,4345.13,4136.92,4067.69,3590.77,4417.95,4445.64,4768.72,4505.64,4533.33,4334.87,4269.74,3885.13,1655,1691,1.348,0,0,0,0,
40,4398.46,4019.49,4352.82,4139.49,4069.23,3591.28,4417.95,4444.1,4770.77,4516.41,4526.15,4336.41,4267.69,3893.33,1656,1691,1.355,0,0,0,0,
41,4391.28,4010.26,4347.69,4126.67,4067.18,3587.69,4412.82,4433.33,4765.64,4505.64,4516.92,4327.69,4261.03,3885.13,1656,1691,1.363,0,0,0,0,
42,4377.95,4000.51,4335.38,4114.36,4060,3585.13,4407.69,4426.67,4755.38,4494.87,4520,4318.97,4262.56,3874.87,1655,1691,1.371,0,0,0,0,
43,4381.03,4001.03,4334.87,4121.54,4062.05,3586.15,4403.08,4426.67,4753.85,4502.56,4523.08,4322.05,4264.1,3880,1656,1691,1.379,0,0,0,0,
44,4395.38,4010.26,4343.59,4134.87,4070.26,3587.69,4406.15,4431.28,4763.08,4511.28,4529.23,4331.28,4269.23,3884.62,1655,1691,1.388,0,0,0,0,
45,4391.28,4013.85,4343.08,4128.21,4067.18,3585.13,4414.36,4435.38,4768.72,4509.23,4538.97,4331.28,4276.41,3878.46,1654,1690,1.395,0,0,0,0,
46,4385.13,4012.82,4340,4123.59,4069.74,3586.67,4415.9,4435.9,4765.64,4508.72,4538.46,4330.26,4276.41,3886.15,1654,1691,1.402,0,0,0,0,
47,4395.38,4013.85,4343.08,4135.38,4073.33,3588.21,4410.26,4431.79,4757.44,4510.77,4529.23,4332.82,4271.79,3895.38,1653,1691,1.41,0,0,0,0,
48,4397.44,4013.33,4344.1,4139.49,4062.05,3580.51,4405.64,4427.18,4749.74,4507.18,4521.54,4328.21,4266.15,3886.67,1653,1692,1.418,0,0,0,0,
49,4386.67,4013.33,4342.05,4135.38,4061.54,3578.46,4407.18,4427.69,4747.18,4503.08,4522.05,4324.1,4263.08,3877.44,1653,1692,1.426,0,0,0,0,
50,4386.67,4014.36,4342.05,4131.79,4076.41,3588.21,4411.28,4428.21,4749.74,4501.54,4522.56,4326.67,4264.1,3880.51,1652,1693,1.434,0,0,0,0,
51,4392.82,4010.77,4341.54,4124.1,4074.87,3588.72,4410.77,4428.21,4758.46,4506.67,4520.51,4326.67,4263.08,3882.05,1653,1692,1.441,0,0,0,0,
52,4388.72,4002.56,4341.03,4123.59,4065.64,3577.95,4408.21,4434.87,4763.08,4506.15,4521.03,4324.62,4254.36,3877.44,1652,1692,1.449,0,0,0,0,
53,4380.51,3999.49,4342.05,4128.21,4067.18,3574.36,4410.77,4442.05,4758.46,4495.9,4520.51,4326.15,4250.26,3877.95,1653,1692,1.457,0,0,0,0,
54,4383.08,4001.54,4343.59,4120.51,4068.21,3578.97,4413.33,4442.05,4758.97,4498.97,4517.95,4329.74,4258.97,3883.08,1653,1691,1.465,0,0,0,0,
55,4403.08,4006.15,4351.79,4120,4066.15,3585.64,4414.87,4440,4766.67,4511.28,4525.13,4337.95,4272.82,3895.9,1654,1692,1.473,0,0,0,0,
56,4424.62,4015.9,4358.97,4135.38,4067.18,3587.18,4415.9,4437.44,4764.62,4509.23,4535.9,4343.59,4279.49,3910.77,1655,1690,1.481,0,0,0,0,
57,4430.77,4024.1,4356.41,4143.08,4067.18,3579.49,4412.82,4437.44,4762.56,4502.05,4538.97,4343.08,4278.97,3915.9,1654,1692,1.488,0,0,0,0,
58,4433.85,4022.05,4352.82,4134.87,4059.49,3570.77,4408.72,4442.56,4767.18,4508.21,4536.41,4343.59,4279.49,3914.87,1655,1691,1.496,0,0,0,0,
59,4443.08,4017.44,4352.31,4127.18,4056.41,3575.38,4409.74,4440.51,4763.59,4512.82,4531.28,4343.08,4274.87,3911.79,1655,1691,1.504,0,0,0,0,
60,4445.64,4019.49,4351.28,4133.33,4065.64,3587.18,4412.31,4431.28,4760.51,4506.67,4525.64,4340,4266.67,3911.28,1656,1690,1.512,0,0,0,0,
61,4437.95,4022.05,4351.79,4140.51,4067.69,3588.72,4413.33,4429.23,4759.49,4496.41,4524.1,4336.92,4263.59,3913.33,1655,1690,1.52,0,0,0,0,
62,4429.74,4021.03,4352.82,4138.46,4062.05,3585.13,4413.85,4430.26,4751.28,4489.74,4522.56,4334.87,4264.1,3908.21,1656,1689,1.528,0,0,0,0,
63,4429.74,4021.03,4350.26,4137.44,4065.13,3585.13,4413.33,4428.21,4747.18,4489.74,4518.46,4331.79,4255.38,3902.05,1655,1689,1.535,0,0,0,0,
64,4432.82,4021.03,4352.31,4137.95,4069.74,3587.18,4414.36,4426.67,4749.23,4490.77,4517.95,4335.38,4248.72,3903.59,1657,1689,1.543,0,0,0,0,
65,4433.33,4021.54,4358.46,4136.41,4063.59,3586.15,4415.38,4427.69,4749.23,4489.74,4521.03,4341.54,4255.38,3909.23,1655,1689,1.551,0,0,0,0,
66,4430.26,4020.51,4355.9,4136.92,4060.51,3584.62,4415.9,4431.28,4750.26,4491.28,4523.08,4340.51,4266.15,3908.72,1656,1691,1.559,0,0,0,0,
67,4423.08,4012.82,4348.72,4134.36,4061.54,3584.62,4414.87,4432.31,4751.28,4493.33,4522.05,4333.33,4266.15,3900.51,1656,1690,1.567,0,0,0,0,
68,4413.33,4002.56,4344.62,4123.59,4054.87,3585.64,4415.9,4427.18,4747.18,4490.26,4518.46,4326.67,4252.31,3893.33,1654,1691,1.574,0,0,0,0,
69,4409.23,3998.97,4343.08,4120,4052.31,3586.67,4423.08,4430.77,4752.82,4490.26,4517.95,4327.69,4245.64,3891.28,1655,1691,1.582,0,0,0,0,
70,4412.31,4002.05,4341.03,4123.08,4060,3588.21,4428.21,4442.56,4763.08,4496.41,4520.51,4333.33,4256.92,3894.87,1654,1692,1.59,0,0,0,0,
71,4413.33,4002.56,4344.1,4125.13,4062.05,3587.18,4418.97,4441.54,4756.41,4497.44,4521.54,4334.87,4264.62,3896.92,1654,1692,1.598,0,0,0,0,
72,4413.85,4002.05,4349.23,4128.21,4057.44,3583.59,4408.72,4430.26,4748.72,4491.28,4520,4332.31,4260,3894.36,1654,1693,1.606,0,0,0,0,
73,4421.54,4011.28,4352.82,4134.36,4064.1,3585.13,4414.36,4430.26,4754.87,4490.77,4521.54,4335.9,4261.54,3900,1655,1693,1.614,0,0,0,0,
74,4427.18,4021.54,4356.41,4137.44,4069.23,3587.69,4415.38,4432.82,4755.9,4493.85,4524.62,4344.1,4266.67,3910.77,1654,1693,1.621,0,0,0,0,
75,4426.15,4021.03,4357.95,4137.95,4058.97,3578.46,4401.54,4424.62,4748.21,4491.28,4524.62,4342.05,4263.59,3908.21,1655,1693,1.629,0,0,0,0,
76,4425.64,4019.49,4358.97,4138.46,4055.38,3569.23,4395.38,4422.56,4747.69,4487.18,4522.05,4335.9,4262.56,3897.95,1655,1691,1.637,0,0,0,0,
77,4427.18,4019.49,4356.92,4137.95,4055.38,3568.21,4403.08,4426.15,4749.74,4488.21,4518.97,4333.33,4260,3896.92,1655,1693,1.645,0,0,0,0,
78,4427.18,4018.46,4353.85,4138.46,4050.77,3570.26,4407.18,4423.08,4749.74,4490.77,4518.97,4335.38,4254.36,3897.95,1655,1691,1.653,0,0,0,0,
79,4427.69,4023.08,4356.41,4140.51,4058.46,3577.44,4408.21,4423.08,4750.77,4490.26,4523.59,4340.51,4258.46,3900,1654,1692,1.66,0,0,0,0,
80,4430.26,4027.69,4360,4143.08,4072.82,3587.69,4417.95,4430.26,4752.31,4488.72,4525.64,4344.1,4265.64,3909.74,1655,1691,1.668,0,0,0,0,
81,4427.69,4022.05,4358.46,4140.51,4068.72,3589.23,4426.67,4432.82,4751.79,4489.23,4524.62,4342.05,4263.59,3908.72,1654,1691,1.676,0,0,0,0,
82,4425.64,4015.38,4356.92,4135.38,4060,3586.15,4426.67,4430.26,4749.74,4491.79,4525.64,4338.97,4261.54,3896.41,1654,1691,1.684,0,0,0,0,
83,4428.21,4019.49,4354.87,4137.95,4064.1,3589.74,4424.62,4430.77,4749.74,4492.31,4526.15,4341.54,4266.67,3893.85,1654,1691,1.692,0,0,0,0,
84,4424.1,4021.03,4350.26,4139.49,4064.62,3587.18,4419.49,4431.79,4751.79,4491.79,4525.13,4338.97,4265.64,3898.46,1654,1691,1.7,0,0,0,0,
85,4411.79,4009.74,4347.18,4129.74,4057.44,3577.95,4411.79,4429.23,4752.82,4491.79,4522.56,4328.21,4256.41,3894.87,1654,1691,1.707,0,0,0,0,
86,4410.26,4007.69,4347.69,4127.18,4054.36,3582.05,4414.87,4425.64,4756.41,4490.26,4520,4326.15,4256.92,3890.26,1655,1691,1.715,0,0,0,0,
87,4420,4021.54,4347.18,4140.51,4062.05,3592.31,4425.13,4431.79,4764.62,4490.77,4522.05,4334.36,4264.1,3894.36,1654,1691,1.723,0,0,0,0,
88,4414.87,4023.08,4348.21,4144.62,4068.21,3589.74,4424.62,4443.59,4765.64,4491.79,4525.64,4336.41,4257.44,3894.36,1655,1692,1.731,0,0,0,0,
89,4412.31,4017.44,4349.23,4137.95,4066.67,3585.13,4417.95,4437.95,4757.95,4488.21,4522.56,4332.82,4246.67,3889.74,1655,1691,1.739,0,0,0,0,
90,4433.85,4027.18,4350.77,4144.1,4064.1,3586.67,4418.46,4424.62,4748.72,4484.1,4519.49,4335.38,4255.38,3896.92,1654,1692,1.746,0,0,0,0,
91,4455.38,4036.92,4357.95,4155.38,4065.64,3589.74,4425.13,4430.77,4748.21,4485.64,4528.72,4344.1,4266.67,3912.31,1656,1692,1.754,0,0,0,0,
92,4463.08,4040,4367.18,4155.38,4071.79,3592.82,4429.23,4444.1,4756.41,4490.26,4540.51,4353.33,4267.18,3924.1,1654,1693,1.762,0,0,0,0,
93,4470.26,4043.59,4369.74,4153.85,4071.79,3592.31,4427.69,4446.67,4760.51,4491.28,4540.51,4359.49,4268.72,3929.23,1656,1693,1.77,0,0,0,0,
94,4478.97,4039.49,4367.69,4156.92,4067.18,3588.21,4424.62,4445.13,4755.38,4490.77,4534.87,4360,4273.33,3931.28,1655,1691,1.778,0,0,0,0,
95,4475.38,4033.85,4367.18,4156.41,4062.05,3588.72,4426.67,4445.13,4753.85,4487.69,4536.41,4357.44,4272.31,3930.26,1655,1692,1.786,0,0,0,0,
96,4466.15,4036.92,4368.21,4153.33,4059.49,3589.74,4427.69,4444.62,4761.03,4490.77,4539.49,4358.97,4268.21,3929.74,1655,1690,1.793,0,0,0,0,
97,4460.51,4038.97,4364.62,4153.33,4058.46,3587.18,4420.51,4445.13,4764.62,4500,4538.46,4355.9,4266.67,3927.69,1655,1690,1.801,0,0,0,0,
98,4455.9,4032.31,4357.95,4152.82,4061.03,3586.15,4416.41,4445.64,4759.49,4500,4535.38,4346.67,4266.67,3921.03,1655,1690,1.81,0,0,0,0,
99,4450.77,4023.08,4356.92,4152.31,4062.56,3586.67,4419.49,4445.13,4753.85,4491.28,4535.9,4346.67,4266.15,3918.97,1655,1691,1.817,0,0,0,0,
100,4446.67,4022.05,4356.92,4150.26,4060,3586.67,4423.59,4445.13,4750.26,4490.26,4539.49,4350.26,4263.59,3918.46,1654,1690,1.825,0,0,0,0,
101,4444.62,4027.69,4352.82,4146.67,4058.46,3586.15,4419.49,4442.05,4742.56,4492.82,4534.87,4343.59,4262.05,3912.82,1655,1691,1.832,0,0,0,0,
102,4441.03,4030.77,4350.26,4140.51,4058.97,3586.15,4412.82,4434.87,4733.33,4485.13,4524.1,4338.97,4260,3909.74,1654,1691,1.84,0,0,0,0,
103,4439.49,4029.23,4351.28,4136.41,4059.49,3586.67,4417.95,4430.77,4731.28,4474.87,4521.03,4342.56,4254.36,3911.79,1654,1691,1.848,0,0,0,0,
104,4441.54,4023.08,4350.26,4143.08,4056.41,3585.64,4427.18,4436.41,4732.31,4471.79,4522.56,4339.49,4249.23,3909.74,1654,1691,1.856,0,0,0,0,
105,4438.97,4023.08,4350.77,4151.79,4058.97,3586.67,4428.72,4445.64,4729.74,4474.36,4521.54,4336.41,4249.74,3907.69,1655,1692,1.864,0,0,0,0,
106,4431.79,4027.69,4349.23,4144.62,4067.18,3591.28,4428.72,4445.13,4731.79,4474.36,4521.03,4340,4251.28,3908.21,1654,1691,1.872,0,0,0,0,
107,4425.13,4022.56,4341.54,4132.82,4064.1,3592.82,4433.33,4445.13,4743.59,4473.33,4519.49,4338.46,4247.18,3905.64,1654,1692,1.879,0,0,0,0,
108,4430.26,4015.38,4341.03,4138.97,4060,3590.77,4433.33,4454.87,4748.72,4482.05,4522.56,4338.97,4251.28,3906.15,1655,1691,1.887,0,0,0,0,
109,4441.03,4021.03,4351.79,4146.67,4067.18,3591.28,4428.21,4460.51,4753.33,4490.26,4534.36,4345.64,4261.54,3911.28,1653,1692,1.895,0,0,0,0,
110,4443.59,4028.21,4358.46,4140,4071.79,3590.26,4427.18,4460,4763.08,4497.44,4538.97,4350.26,4265.13,3917.95,1655,1691,1.903,0,0,0,0,
111,4447.18,4029.23,4357.44,4142.56,4068.72,3587.69,4424.62,4455.38,4760.51,4507.18,4536.92,4354.36,4271.28,3926.15,1654,1691,1.911,0,0,0,0,
112,4456.92,4034.87,4357.95,4155.9,4066.67,3587.18,4417.44,4446.15,4751.79,4510.77,4547.69,4360,4281.03,3928.21,1654,1691,1.918,0,0,0,0,
113,4460.51,4042.05,4362.05,4160.51,4067.18,3588.72,4415.38,4442.56,4749.23,4509.23,4555.38,4360.51,4283.59,3926.15,1654,1691,1.926,0,0,0,0,
114,4453.85,4042.05,4361.54,4155.38,4071.28,3585.64,4415.9,4442.56,4743.08,4507.69,4544.1,4357.95,4278.46,3929.74,1654,1692,1.934,0,0,0,0,
115,4447.18,4035.38,4357.44,4153.33,4066.15,3575.9,4410.77,4431.28,4730.77,4497.95,4534.36,4351.28,4269.74,3925.13,1654,1692,1.942,0,0,0,0,
116,4447.18,4033.33,4357.95,4154.36,4053.85,3575.38,4407.69,4428.21,4732.31,4487.18,4536.41,4344.1,4263.08,3912.82,1654,1692,1.95,0,0,0,0,
117,4450.26,4040.51,4364.62,4153.33,4062.05,3582.56,4413.33,4442.05,4738.97,4491.79,4535.9,4347.69,4265.13,3915.38,1654,1691,1.958,0,0,0,0,
118,4450.77,4043.08,4365.64,4151.79,4076.41,3581.03,4417.95,4445.64,4737.44,4496.92,4535.9,4353.33,4267.69,3927.18,1654,1692,1.965,0,0,0,0,
119,4447.18,4035.38,4360.51,4150.26,4067.69,3578.97,4420.51,4440.51,4734.36,4491.79,4534.87,4351.28,4264.1,3926.67,1655,1691,1.973,0,0,0,0,
120,4444.62,4030.26,4357.44,4151.28,4058.97,3586.67,4425.64,4444.1,4734.36,4486.15,4525.64,4348.21,4261.03,3914.87,1654,1692,1.981,0,0,0,0,
121,4443.08,4037.44,4357.44,4152.31,4071.28,3590.77,4426.67,4444.1,4734.36,4490.26,4528.72,4349.74,4261.54,3909.74,1656,1692,1.989,0,0,0,0,
122,4442.56,4043.59,4353.33,4152.82,4076.92,3588.21,4426.67,4442.05,4733.33,4488.72,4536.92,4348.21,4262.56,3910.77,1654,1691,1.997,0,0,0,0,
123,4443.08,4038.46,4349.74,4154.36,4067.18,3588.21,4429.23,4443.08,4732.31,4474.36,4527.69,4343.59,4261.54,3910.77,1655,1693,2.004,0,0,0,0,
124,4443.59,4037.44,4353.33,4154.87,4063.08,3587.18,4425.64,4439.49,4728.21,4473.33,4523.59,4341.54,4260,3908.72,1655,1691,2.012,0,0,0,0,
125,4445.13,4045.13,4356.41,4153.85,4070.77,3586.15,4419.49,4437.95,4726.15,4490.26,4535.9,4347.69,4263.08,3909.74,1655,1692,2.02,0,0,0,0,
126,4446.15,4047.69,4353.33,4152.31,4075.9,3588.21,4423.59,4443.08,4732.31,4495.38,4541.03,4352.82,4270.26,3916.92,1655,1691,2.028,0,0,0,0,
127,4445.64,4045.13,4350.26,4151.28,4072.82,3587.18,4428.72,4443.59,4736.92,4490.77,4538.46,4348.72,4270.77,3920,1655,1692,2.036,0,0,0,0,
128,4439.49,4043.59,4346.15,4150.77,4066.67,3585.64,4422.05,4442.56,4736.92,4491.79,4538.46,4343.08,4265.64,3913.85,1656,1691,2.044,0,0,0,0,
0,4433.85,4038.97,4343.08,4151.28,4060,3585.64,4413.33,4443.08,4735.9,4493.33,4529.74,4336.92,4263.08,3909.23,1655,1692,2.051,0,0,0,0,
1,4437.44,4037.95,4347.69,4153.33,4064.62,3585.64,4413.33,4438.46,4735.9,4492.31,4522.05,4335.9,4264.1,3911.79,1656,1691,2.059,0,0,0,0,
2,4443.59,4044.62,4351.28,4152.82,4073.33,3584.1,4415.38,4430.77,4733.85,4491.28,4524.62,4340,4262.05,3912.31,1654,1692,2.067,0,0,0,0,
3,4444.1,4043.59,4350.77,4152.31,4070.26,3579.49,4412.82,4427.18,4730.77,4489.74,4528.21,4341.03,4260.51,3910.26,1656,1691,2.075,0,0,0,0,
4,4444.1,4038.97,4350.77,4155.38,4062.05,3575.9,4412.31,4427.69,4726.67,4485.64,4529.23,4340,4260.51,3911.28,1654,1691,2.083,0,0,0,0,
5,4445.13,4042.56,4351.28,4149.74,4058.46,3574.36,4413.85,4428.21,4724.1,4477.44,4530.77,4342.05,4259.49,3914.36,1655,1693,2.09,0,0,0,0,
6,4443.59,4044.1,4349.74,4138.97,4058.46,3570.77,4411.28,4427.18,4725.64,4472.31,4534.87,4341.54,4262.56,3913.85,1655,1692,2.098,0,0,0,0,
7,4442.05,4040,4349.23,4143.08,4067.18,3575.38,4415.9,4435.9,4731.28,4476.41,4536.41,4340,4262.05,3911.28,1655,1693,2.106,0,0,0,0,
8,4444.62,4042.05,4352.82,4155.38,4074.87,3587.18,4427.69,4448.21,4735.38,4486.67,4535.9,4346.67,4262.05,3917.95,1655,1691,2.114,0,0,0,0,
9,4446.67,4044.62,4359.49,4155.38,4069.23,3590.26,4430.26,4449.23,4737.44,4501.54,4538.46,4355.38,4273.85,3929.23,1656,1693,2.122,0,0,0,0,
10,4444.62,4044.1,4360,4146.15,4070.77,3589.23,4428.72,4446.15,4738.97,4508.72,4542.56,4354.36,4286.15,3928.72,1656,1692,2.13,0,0,0,0,
11,4442.05,4043.59,4352.31,4145.64,4072.31,3590.26,4427.18,4442.05,4736.41,4498.46,4541.03,4349.74,4279.49,3923.59,1655,1692,2.137,0,0,0,0,
12,4443.59,4041.03,4348.72,4150.26,4063.59,3587.69,4421.03,4430.26,4731.79,4489.74,4538.46,4349.74,4268.72,3926.15,1656,1691,2.145,0,0,0,0,
13,4444.1,4034.36,4351.79,4146.67,4066.67,3587.69,4421.54,4428.72,4732.82,4493.33,4538.97,4352.31,4272.31,3928.72,1655,1692,2.153,0,0,0,0,
14,4441.54,4032.82,4349.74,4133.85,4074.36,3589.74,4426.15,4439.49,4735.38,4495.38,4540.51,4349.23,4273.85,3918.97,1656,1692,2.161,0,0,0,0,
15,4439.49,4033.85,4344.62,4132.82,4067.18,3586.15,4423.59,4443.59,4734.36,4490.26,4539.49,4341.54,4266.67,3911.28,1655,1691,2.169,0,0,0,0,
16,4441.03,4036.41,4346.67,4144.1,4063.59,3584.1,4423.59,4443.08,4733.33,4490.26,4537.95,4342.05,4269.74,3920.51,1655,1693,2.177,0,0,0,0,
17,4442.56,4038.97,4352.31,4145.13,4069.23,3588.72,4429.23,4444.62,4738.46,4497.95,4540,4348.21,4278.97,3929.74,1655,1692,2.184,0,0,0,0,
18,4442.05,4037.95,4350.26,4137.95,4066.15,3591.79,4429.23,4447.69,4749.74,4508.21,4542.56,4352.82,4280.51,3926.15,1654,1692,2.193,0,0,0,0,
19,4435.38,4036.41,4348.21,4135.38,4066.15,3591.28,4429.23,4451.28,4752.31,4506.67,4542.05,4350.77,4278.46,3923.59,1656,1692,2.2,0,0,0,0,
20,4430.77,4038.97,4349.23,4141.03,4075.38,3593.33,4434.87,4448.72,4746.15,4495.38,4539.49,4345.13,4275.9,3921.54,1655,1692,2.208,0,0,0,0,
21,4433.33,4038.46,4351.79,4142.56,4077.44,3599.49,4437.44,4443.59,4742.05,4492.82,4536.92,4343.08,4266.67,3913.85,1655,1692,2.216,0,0,0,0,
22,4430.26,4030.77,4349.23,4134.87,4070.26,3603.08,4433.85,4444.1,4737.44,4492.82,4535.38,4341.03,4262.05,3909.23,1655,1692,2.223,0,0,0,0,
23,4424.1,4029.23,4342.05,4135.9,4067.69,3603.08,4429.74,4443.59,4736.92,4492.31,4535.9,4335.38,4269.23,3915.9,1655,1692,2.231,0,0,0,0,
24,4431.79,4042.05,4340.51,4150.26,4075.38,3603.08,4430.77,4440.51,4742.56,4500,4537.95,4337.44,4277.44,3922.05,1654,1692,2.239,0,0,0,0,
25,4444.1,4054.87,4352.82,4158.97,4085.13,3602.05,4430.77,4441.03,4745.64,4508.72,4543.59,4350.26,4281.03,3927.18,1654,1692,2.247,0,0,0,0,
26,4452.31,4055.9,4365.13,4156.92,4084.62,3600,4427.18,4441.03,4744.62,4507.69,4549.23,4358.46,4282.56,3936.41,1654,1692,2.255,0,0,0,0,
27,4457.95,4051.79,4366.67,4156.41,4077.95,3602.56,4426.67,4440,4742.56,4506.15,4545.64,4357.44,4280.51,3937.95,1655,1691,2.263,0,0,0,0,
28,4456.41,4047.69,4361.54,4152.82,4077.44,3604.62,4428.72,4441.03,4739.49,4506.67,4538.46,4354.36,4273.33,3929.23,1655,1692,2.27,0,0,0,0,
29,4441.54,4041.03,4354.36,4142.05,4080,3604.1,4431.28,4443.08,4736.41,4496.41,4536.41,4347.18,4265.64,3922.56,1655,1691,2.278,0,0,0,0,
30,4430.26,4036.41,4349.23,4135.9,4076.41,3605.64,4435.38,4445.64,4742.05,4488.72,4538.46,4344.62,4263.59,3925.13,1655,1691,2.286,0,0,0,0,
31,4434.36,4034.87,4350.26,4135.9,4074.36,3606.67,4433.33,4446.67,4748.72,4496.92,4540.51,4350.26,4268.72,3926.15,1655,1690,2.294,0,0,0,0,
32,4441.54,4035.38,4349.74,4136.92,4074.36,3604.1,4429.23,4444.62,4743.59,4506.67,4541.03,4350.77,4275.9,3924.62,1654,1692,2.302,0,0,0,0,
33,4445.13,4042.05,4350.77,4144.1,4075.38,3605.13,4430.77,4445.64,4735.38,4510.26,4546.67,4351.28,4282.05,3927.69,1655,1692,2.309,0,0,0,0,
34,4447.18,4047.69,4351.28,4153.33,4076.41,3607.69,4431.79,4447.18,4734.87,4507.18,4552.31,4354.87,4283.59,3930.77,1654,1692,2.317,0,0,0,0,
35,4446.15,4041.03,4345.64,4151.28,4071.28,3605.13,4427.69,4440,4730.77,4496.41,4545.13,4348.21,4273.33,3926.15,1655,1693,2.325,0,0,0,0,
36,4441.54,4037.44,4342.05,4146.67,4069.74,3602.05,4425.64,4433.33,4721.03,4487.18,4534.36,4336.92,4264.1,3919.49,1656,1691,2.333,0,0,0,0,
37,4449.23,4047.69,4348.72,4152.31,4077.44,3605.13,4428.21,4437.44,4725.64,4490.77,4534.87,4341.54,4269.74,3923.59,1655,1692,2.341,0,0,0,0,
38,4462.05,4053.85,4355.38,4153.85,4077.44,3607.18,4429.74,4444.62,4736.41,4498.97,4540.51,4351.28,4278.46,3929.23,1656,1690,2.349,0,0,0,0,
39,4462.05,4050.77,4354.87,4150.26,4075.38,3606.67,4429.23,4445.64,4735.38,4506.67,4544.62,4352.31,4278.97,3929.74,1656,1690,2.356,0,0,0,0,
40,4457.44,4051.28,4351.79,4153.33,4083.59,3606.67,4429.23,4445.64,4730.26,4508.21,4544.62,4351.79,4278.97,3929.74,1656,1690,2.364,0,0,0,0,
41,4456.41,4053.33,4349.23,4152.82,4080.51,3606.67,4428.72,4445.13,4730.26,4498.97,4539.49,4350.26,4278.97,3928.21,1656,1691,2.372,0,0,0,0,
42,4456.92,4047.18,4350.77,4146.67,4065.64,3603.59,4428.21,4444.1,4734.36,4498.97,4538.46,4348.21,4277.95,3924.62,1656,1692,2.38,0,0,0,0,
43,4457.44,4042.05,4352.31,4147.18,4071.28,3602.56,4430.77,4447.18,4735.38,4508.21,4542.05,4349.74,4278.97,3926.67,1655,1691,2.388,0,0,0,0,
44,4451.79,4044.1,4349.23,4144.62,4075.9,3605.13,4426.67,4440.51,4722.56,4501.03,4538.97,4346.67,4270.26,3927.18,1656,1692,2.395,0,0,0,0,
45,4441.03,4042.56,4348.72,4132.82,4062.56,3602.56,4417.95,4425.13,4703.08,4479.49,4533.33,4337.44,4260,3917.44,1654,1692,2.403,0,0,0,0,
46,4443.08,4042.56,4351.28,4136.41,4063.59,3603.08,4423.59,4424.1,4704.62,4474.36,4534.36,4338.97,4264.62,3917.44,1654,1694,2.411,0,0,0,0,
47,4455.38,4048.21,4352.82,4154.36,4081.54,3612.82,4434.36,4434.36,4718.97,4485.13,4537.95,4347.18,4269.23,3928.21,1654,1692,2.419,0,0,0,0,
48,4458.97,4048.21,4352.82,4156.41,4080.51,3612.31,4430.26,4434.87,4717.95,4490.26,4536.41,4344.62,4264.1,3928.72,1653,1694,2.427,0,0,0,0,
49,4455.9,4048.21,4350.26,4148.21,4071.28,3602.56,4425.64,4435.38,4718.97,4493.33,4536.92,4344.62,4267.69,3924.62,1654,1693,2.435,0,0,0,0,
50,4457.95,4054.36,4351.28,4153.85,4077.95,3608.72,4433.85,4444.62,4731.79,4497.95,4542.05,4353.33,4277.44,3928.72,1652,1692,2.442,0,0,0,0,
51,4460.51,4049.74,4351.28,4154.87,4080.51,3621.03,4436.92,4447.18,4728.72,4495.38,4540,4349.74,4271.28,3929.23,1654,1693,2.45,0,0,0,0,
52,4457.44,4037.44,4344.62,4143.08,4073.85,3619.49,4432.82,4441.54,4717.44,4488.72,4533.85,4340,4261.03,3923.08,1653,1692,2.458,0,0,0,0,
53,4453.33,4035.38,4341.03,4138.46,4074.36,3615.9,4436.92,4440.51,4717.95,4487.18,4533.33,4341.03,4262.56,3923.08,1653,1692,2.466,0,0,0,0,
54,4453.85,4034.36,4343.08,4138.97,4070.26,3618.97,4443.59,4443.59,4718.97,4486.67,4535.38,4344.62,4266.67,3923.59,1653,1692,2.474,0,0,0,0,
55,4456.41,4032.82,4341.03,4141.03,4061.03,3621.03,4444.1,4442.56,4719.49,4490.77,4539.49,4342.56,4266.67,3923.59,1654,1691,2.482,0,0,0,0,
56,4459.49,4040,4341.03,4150.77,4069.74,3622.56,4444.1,4442.05,4724.1,4495.9,4540,4342.56,4266.67,3924.1,1654,1690,2.489,0,0,0,0,
57,4461.54,4042.56,4345.64,4154.36,4080,3623.08,4445.13,4441.03,4722.05,4489.23,4536.41,4343.08,4266.15,3923.59,1654,1691,2.497,0,0,0,0,
58,4461.03,4036.41,4344.1,4144.1,4074.87,3617.44,4441.03,4441.54,4719.49,4483.59,4534.36,4342.56,4265.13,3926.67,1655,1690,2.505,0,0,0,0,
59,4457.44,4034.87,4338.97,4136.92,4071.28,3608.72,4432.82,4442.56,4720.51,4487.18,4536.92,4342.56,4266.15,3925.64,1655,1691,2.514,0,0,0,0,
60,4457.44,4036.92,4339.49,4139.49,4073.33,3606.15,4428.21,4437.95,4719.49,4490.77,4536.92,4343.08,4268.72,3914.87,1656,1691,2.521,0,0,0,0,
61,4458.46,4032.82,4341.54,4140,4067.69,3606.15,4427.18,4430.26,4720.51,4490.26,4535.38,4342.05,4265.13,3914.87,1655,1690,2.528,0,0,0,0,
62,4459.49,4033.85,4342.05,4137.44,4064.62,3606.67,4427.18,4434.87,4723.08,4492.31,4537.44,4341.03,4262.05,3925.13,1656,1691,2.536,0,0,0,0,
63,4461.54,4043.08,4343.08,4143.59,4071.28,3612.82,4433.33,4442.05,4721.03,4494.87,4540.51,4346.15,4272.82,3927.18,1656,1690,2.544,0,0,0,0,
64,4462.05,4046.15,4343.08,4152.31,4074.87,3619.49,4440.51,4437.95,4715.38,4488.21,4541.03,4349.23,4281.03,3924.62,1656,1692,2.552,0,0,0,0,
65,4461.03,4044.1,4342.56,4153.85,4075.9,3620.51,4443.08,4431.79,4712.31,4482.56,4538.46,4344.62,4270.26,3925.13,1657,1690,2.56,0,0,0,0,
66,4461.03,4042.56,4342.56,4149.23,4074.36,3617.44,4440,4432.82,4712.82,4486.15,4536.41,4341.03,4261.54,3924.1,1657,1692,2.568,0,0,0,0,
67,4458.97,4044.62,4341.54,4150.77,4072.82,3617.95,4435.38,4436.92,4715.38,4489.74,4534.87,4344.1,4270.26,3925.13,1655,1691,2.575,0,0,0,0,
68,4458.97,4047.18,4341.54,4154.87,4076.92,3617.95,4432.31,4440,4722.56,4489.23,4541.54,4346.67,4280,3927.18,1656,1692,2.583,0,0,0,0,
69,4460.51,4045.13,4343.08,4152.31,4076.41,3614.36,4433.85,4440.51,4731.28,4495.9,4548.72,4343.59,4280.51,3926.15,1656,1691,2.591,0,0,0,0,
70,4460,4045.64,4342.05,4151.79,4070.77,3613.33,4434.36,4442.05,4734.36,4508.21,4544.62,4342.05,4278.46,3929.23,1654,1693,2.599,0,0,0,0,
71,4456.92,4049.74,4337.95,4151.28,4076.41,3615.38,4431.79,4444.1,4732.31,4509.23,4542.56,4341.03,4278.46,3929.23,1655,1693,2.607,0,0,0,0,
72,4457.95,4051.79,4336.41,4150.77,4090.26,3618.46,4435.38,4442.05,4733.33,4503.08,4551.28,4340.51,4286.67,3927.69,1654,1693,2.614,0,0,0,0,
73,4466.15,4057.95,4342.56,4153.33,4089.23,3620,4441.03,4444.1,4735.38,4510.77,4555.38,4344.62,4294.87,3936.41,1655,1693,2.622,0,0,0,0,
74,4473.33,4063.59,4350.26,4156.41,4077.44,3615.38,4443.08,4456.92,4737.44,4521.54,4553.33,4354.36,4294.87,3946.15,1654,1691,2.63,0,0,0,0,
75,4475.38,4056.92,4351.28,4155.9,4075.38,3606.67,4442.05,4460.51,4740,4516.41,4555.9,4360,4294.87,3948.21,1654,1692,2.638,0,0,0,0,
76,4471.28,4049.74,4349.23,4153.85,4075.38,3603.08,4438.97,4451.79,4736.92,4504.62,4556.92,4357.44,4296.92,3944.62,1656,1691,2.646,0,0,0,0,
77,4463.59,4054.36,4350.26,4152.82,4072.31,3606.67,4440,4453.85,4733.33,4506.15,4555.9,4355.9,4295.38,3942.56,1654,1693,2.654,0,0,0,0,
78,4461.03,4056.92,4352.82,4152.31,4076.92,3608.21,4442.05,4456.92,4735.38,4511.28,4556.41,4358.97,4289.74,3942.05,1656,1693,2.661,0,0,0,0,
79,4460.51,4054.36,4348.21,4149.23,4081.54,3606.15,4442.05,4445.13,4734.36,4502.56,4552.82,4354.36,4281.54,3934.36,1655,1693,2.669,0,0,0,0,
80,4457.95,4054.87,4342.05,4140,4074.36,3606.15,4440,4443.08,4730.77,4494.87,4548.72,4348.21,4277.44,3929.74,1655,1693,2.677,0,0,0,0,
81,4463.59,4055.38,4349.23,4137.95,4071.79,3610.26,4444.1,4458.97,4737.95,4501.03,4552.31,4356.41,4287.18,3940,1655,1692,2.685,0,0,0,0,
82,4476.41,4055.38,4361.03,4149.23,4077.95,3617.95,4450.77,4464.62,4750.26,4510.26,4558.46,4369.74,4295.9,3948.21,1654,1691,2.693,0,0,0,0,
83,4475.9,4055.38,4358.97,4155.9,4076.41,3618.46,4450.26,4458.97,4749.74,4511.79,4554.87,4368.72,4290.26,3943.59,1655,1692,2.7,0,0,0,0,
84,4471.28,4055.9,4357.44,4154.36,4071.79,3610.77,4445.13,4460.51,4746.15,4511.79,4553.85,4366.15,4288.21,3943.08,1655,1691,2.708,0,0,0,0,
85,4477.44,4055.38,4365.13,4152.82,4076.92,3607.69,4445.13,4463.59,4748.72,4512.31,4564.62,4373.33,4294.87,3947.18,1655,1692,2.716,0,0,0,0,
86,4478.46,4054.36,4363.59,4150.26,4078.46,3607.18,4447.18,4460,4744.62,4508.21,4563.59,4372.82,4296.92,3945.13,1654,1690,2.724,0,0,0,0,
87,4472.31,4055.38,4357.44,4149.23,4073.33,3603.08,4439.49,4453.33,4737.44,4510.77,4552.82,4364.1,4291.28,3944.1,1655,1690,2.732,0,0,0,0,
88,4473.33,4054.36,4356.92,4150.26,4070.26,3601.54,4433.85,4446.67,4734.36,4509.23,4551.28,4360,4286.67,3940.51,1654,1689,2.74,0,0,0,0,
89,4469.74,4044.62,4351.28,4140,4063.08,3602.05,4431.79,4437.44,4724.1,4489.74,4542.05,4350.26,4276.92,3929.23,1653,1690,2.747,0,0,0,0,
90,4461.03,4041.03,4344.62,4132.82,4055.9,3601.03,4427.69,4431.79,4717.95,4478.46,4531.79,4340,4268.72,3926.15,1655,1689,2.755,0,0,0,0,
91,4465.64,4053.85,4351.28,4145.13,4072.82,3607.69,4434.87,4436.92,4727.69,4496.41,4543.59,4347.69,4278.46,3939.49,1653,1690,2.763,0,0,0,0,
92,4476.92,4063.59,4360,4157.95,4092.82,3618.97,4447.69,4445.13,4735.9,4513.33,4556.92,4361.03,4291.79,3949.23,1654,1690,2.771,0,0,0,0,
93,4474.87,4058.97,4358.46,4154.36,4087.69,3620,4447.69,4449.23,4736.92,4509.23,4552.82,4360,4293.33,3945.13,1655,1689,2.779,0,0,0,0,
94,4470.77,4058.46,4356.41,4148.72,4081.03,3619.49,4444.1,4455.9,4745.64,4506.15,4551.28,4355.9,4292.31,3943.08,1654,1690,2.786,0,0,0,0,
95,4474.36,4060,4358.46,4150.77,4084.62,3622.05,4450.77,4462.56,4754.36,4509.74,4556.92,4357.95,4295.9,3945.13,1655,1689,2.795,0,0,0,0,
96,4475.38,4055.38,4358.97,4154.87,4080,3620.51,4456.41,4461.54,4751.28,4508.72,4555.9,4356.41,4294.87,3944.1,1655,1690,2.802,0,0,0,0,
97,4475.38,4051.79,4356.92,4152.31,4073.85,3618.97,4458.46,4459.49,4747.69,4508.21,4551.28,4355.38,4291.28,3942.05,1655,1690,2.81,0,0,0,0,
98,4473.85,4052.82,4357.95,4143.08,4077.95,3617.95,4455.9,4462.56,4745.13,4505.64,4553.33,4355.9,4287.69,3942.05,1654,1691,2.818,0,0,0,0,
99,4467.18,4051.79,4358.46,4138.46,4075.9,3610.26,4447.18,4459.49,4736.92,4495.9,4551.28,4353.85,4280.51,3940,1655,1691,2.826,0,0,0,0,
100,4461.03,4047.18,4352.82,4138.97,4066.67,3604.1,4442.56,4448.72,4731.79,4489.74,4541.54,4347.69,4274.87,3932.31,1654,1691,2.833,0,0,0,0,
101,4460,4044.1,4347.69,4138.97,4064.1,3606.67,4444.62,4443.08,4733.85,4492.82,4537.95,4344.1,4271.79,3926.15,1656,1691,2.841,0,0,0,0,
102,4460,4042.05,4349.23,4137.95,4062.56,3608.21,4444.62,4443.59,4734.87,4492.82,4540,4347.18,4273.33,3927.18,1653,1691,2.849,0,0,0,0,
103,4456.92,4043.59,4353.33,4134.36,4061.03,3605.64,4441.03,4441.03,4730.77,4489.74,4537.44,4349.23,4277.44,3930.26,1654,1692,2.857,0,0,0,0,
104,4458.46,4049.74,4355.9,4138.97,4068.72,3604.62,4442.05,4440.51,4735.9,4496.92,4542.05,4350.77,4278.97,3935.38,1654,1691,2.865,0,0,0,0,
105,4465.64,4052.82,4358.46,4149.74,4072.82,3604.1,4444.62,4443.59,4746.67,4506.15,4552.31,4353.85,4279.49,3941.03,1653,1691,2.872,0,0,0,0,
106,4469.23,4051.28,4358.97,4155.38,4066.67,3602.05,4443.59,4447.69,4749.74,4508.21,4553.85,4354.36,4285.13,3943.59,1654,1690,2.88,0,0,0,0,
107,4468.72,4052.82,4356.92,4150.26,4068.72,3603.59,4444.62,4456.41,4750.26,4507.69,4552.82,4356.92,4292.82,3943.08,1653,1691,2.888,0,0,0,0,
108,4472.31,4057.95,4361.54,4144.62,4073.85,3605.64,4446.67,4462.56,4751.28,4505.64,4556.92,4364.1,4294.36,3944.62,1654,1692,2.896,0,0,0,0,
109,4477.44,4060.51,4370.26,4150.26,4070.77,3603.59,4445.13,4458.97,4750.77,4505.13,4558.46,4369.23,4290.77,3953.33,1654,1692,2.904,0,0,0,0,
110,4477.95,4061.03,4371.28,4154.87,4065.64,3601.03,4442.56,4452.82,4750.26,4505.13,4553.33,4365.13,4290.77,3958.46,1654,1692,2.912,0,0,0,0,
111,4476.41,4054.87,4365.64,4142.56,4060,3601.54,4440,4446.15,4743.08,4497.95,4548.72,4358.97,4285.13,3949.74,1653,1692,2.919,0,0,0,0,
112,4475.9,4047.18,4367.69,4137.44,4062.05,3601.54,4439.49,4442.05,4733.85,4487.69,4548.72,4356.41,4278.97,3942.05,1655,1692,2.927,0,0,0,0,
113,4474.87,4053.85,4368.72,4153.33,4074.87,3604.1,4443.59,4444.62,4737.44,4489.23,4551.28,4357.95,4284.1,3945.13,1654,1691,2.935,0,0,0,0,
114,4473.33,4059.49,4360,4154.36,4078.46,3604.1,4440,4444.1,4742.05,4493.85,4551.79,4354.87,4290.77,3945.13,1655,1692,2.943,0,0,0,0,
115,4472.31,4052.31,4358.46,4145.13,4071.28,3593.85,4429.23,4440,4733.33,4490.77,4550.77,4351.28,4286.67,3941.54,1655,1691,2.951,0,0,0,0,
116,4473.33,4051.28,4366.67,4150.77,4072.82,3588.21,4426.67,4440.51,4734.36,4490.26,4551.28,4354.87,4287.18,3942.56,1655,1692,2.958,0,0,0,0,
117,4473.85,4059.49,4366.67,4156.92,4078.46,3590.26,4431.79,4442.05,4748.21,4498.46,4553.85,4359.49,4292.82,3946.15,1656,1692,2.966,0,0,0,0,
118,4474.87,4062.56,4363.08,4154.87,4074.36,3589.23,4430.26,4444.62,4750.77,4507.69,4558.97,4361.03,4294.87,3952.31,1654,1693,2.974,0,0,0,0,
119,4475.38,4060.51,4365.13,4150.26,4066.67,3592.31,4431.28,4445.13,4742.05,4509.23,4557.95,4356.92,4294.36,3951.28,1655,1691,2.982,0,0,0,0,
120,4473.33,4057.44,4366.67,4147.18,4065.13,3603.08,4439.49,4443.59,4738.97,4503.08,4552.31,4353.33,4285.13,3943.59,1654,1691,2.99,0,0,0,0,
121,4473.85,4057.44,4366.67,4152.31,4071.79,3604.1,4444.62,4452.82,4748.21,4503.08,4552.82,4357.44,4280.51,3943.08,1655,1691,2.998,0,0,0,0,
122,4476.41,4062.56,4369.74,4157.44,4074.87,3600.51,4441.54,4462.56,4753.33,4508.72,4554.36,4361.03,4288.21,3947.18,1654,1690,3.005,0,0,0,0,
123,4477.95,4064.1,4371.79,4153.33,4072.31,3603.08,4442.05,4454.87,4747.69,4501.54,4551.79,4358.46,4286.67,3945.13,1655,1690,3.013,0,0,0,0,
124,4478.46,4059.49,4369.74,4154.36,4075.38,3598.46,4444.1,4445.64,4741.54,4489.23,4550.77,4357.44,4276.92,3942.56,1654,1691,3.021,0,0,0,0,
125,4474.36,4054.36,4365.64,4154.36,4071.28,3588.21,4435.38,4443.59,4734.87,4486.67,4553.85,4357.44,4276.92,3946.15,1656,1692,3.029,0,0,0,0,
126,4478.97,4060,4371.79,4153.85,4067.69,3591.28,4432.82,4443.59,4736.41,4493.85,4555.9,4360,4288.72,3954.36,1656,1691,3.037,0,0,0,0,
127,4489.74,4076.41,4383.59,4164.1,4082.56,3603.59,4443.08,4452.31,4747.69,4504.1,4556.41,4366.67,4296.41,3962.05,1654,1693,3.045,0,0,0,0,
128,4484.62,4076.41,4377.95,4161.54,4090.26,3605.13,4446.67,4460.51,4751.79,4510.26,4555.9,4364.62,4290.77,3958.97,1656,1692,3.052,0,0,0,0,
0,4470.77,4061.03,4363.59,4148.72,4075.9,3596.41,4441.54,4458.97,4746.67,4507.69,4552.82,4353.33,4279.49,3944.1,1655,1691,3.06,0,0,0,0,
1,4473.85,4058.46,4366.15,4153.85,4072.31,3589.74,4438.97,4454.87,4743.59,4507.18,4546.15,4350.26,4280,3940,1655,1691,3.068,0,0,0,0,
2,4475.38,4062.05,4370.77,4157.44,4076.41,3588.21,4437.95,4451.79,4738.46,4507.69,4540,4352.31,4280.51,3947.18,1656,1691,3.076,0,0,0,0,
3,4458.46,4052.82,4360,4142.56,4066.15,3589.74,4435.38,4445.13,4731.28,4492.82,4538.46,4344.62,4266.67,3936.92,1655,1691,3.084,0,0,0,0,
4,4452.31,4047.69,4356.92,4141.54,4066.15,3594.87,4440.51,4445.64,4739.49,4486.15,4540,4340,4263.59,3924.1,1655,1691,3.091,0,0,0,0,
5,4465.64,4051.79,4366.67,4156.92,4077.44,3595.9,4444.62,4450.26,4748.72,4500.51,4540,4349.74,4274.87,3935.9,1655,1692,3.099,0,0,0,0,
6,4466.15,4049.23,4367.18,4152.82,4071.28,3591.28,4441.03,4444.62,4740.51,4500.51,4536.92,4352.82,4271.79,3947.69,1655,1691,3.107,0,0,0,0,
7,4460,4045.64,4364.1,4137.44,4064.62,3590.77,4438.97,4443.08,4737.44,4490.77,4538.46,4346.67,4264.1,3940,1655,1691,3.115,0,0,0,0,
8,4468.72,4047.69,4369.23,4137.95,4069.23,3591.28,4442.05,4454.87,4747.69,4499.49,4545.64,4350.77,4273.33,3937.95,1654,1690,3.123,0,0,0,0,
9,4473.85,4049.23,4370.26,4150.77,4067.18,3594.87,4442.05,4461.03,4750.26,4511.79,4543.59,4355.9,4279.49,3944.1,1654,1691,3.131,0,0,0,0,
10,4470.77,4054.36,4367.69,4151.79,4070.26,3603.59,4442.05,4455.38,4746.15,4505.13,4543.08,4353.33,4272.31,3944.62,1653,1690,3.138,0,0,0,0,
11,4472.31,4059.49,4372.82,4149.74,4084.62,3604.1,4445.13,4457.95,4746.67,4494.36,4552.82,4356.92,4273.85,3944.1,1654,1691,3.146,0,0,0,0,
12,4468.21,4053.85,4371.28,4153.33,4083.59,3601.03,4444.1,4457.44,4739.49,4489.23,4548.72,4356.41,4272.82,3942.56,1654,1691,3.154,0,0,0,0,
13,4456.92,4048.21,4363.08,4153.85,4074.36,3602.56,4439.49,4444.62,4732.31,4487.18,4535.38,4347.69,4264.62,3938.97,1654,1692,3.162,0,0,0,0,
14,4461.03,4056.41,4362.05,4152.31,4076.92,3598.46,4439.49,4445.64,4742.05,4496.41,4540.51,4347.18,4270.77,3941.54,1654,1691,3.17,0,0,0,0,
15,4474.87,4062.56,4369.74,4151.79,4077.95,3589.23,4441.03,4459.49,4750.26,4507.69,4553.85,4351.79,4282.56,3946.15,1655,1692,3.177,0,0,0,0,
16,4473.85,4061.54,4370.26,4153.85,4078.46,3593.85,4442.56,4459.49,4748.72,4508.72,4552.82,4352.31,4280.51,3944.62,1655,1691,3.185,0,0,0,0,
17,4464.1,4062.05,4364.1,4155.9,4083.08,3603.59,4440.51,4452.31,4748.21,4505.64,4544.62,4350.77,4276.41,3943.59,1653,1692,3.193,0,0,0,0,
18,4458.46,4055.9,4360.51,4151.79,4080,3604.1,4436.92,4452.31,4747.69,4502.05,4538.46,4343.59,4275.9,3941.54,1655,1691,3.201,0,0,0,0,
19,4460,4050.26,4364.62,4149.23,4083.59,3604.1,4440.51,4458.46,4754.36,4507.18,4544.62,4346.15,4276.41,3940.51,1653,1690,3.209,0,0,0,0,
20,4462.05,4051.79,4371.79,4156.41,4092.31,3606.15,4446.15,4465.64,4767.18,4521.54,4557.44,4358.97,4282.56,3945.64,1655,1691,3.217,0,0,0,0,
21,4462.05,4044.1,4366.15,4151.79,4078.46,3602.56,4444.1,4465.13,4771.28,4527.18,4555.9,4356.92,4284.1,3948.21,1655,1691,3.224,0,0,0,0,
22,4460.51,4035.38,4358.97,4135.38,4063.59,3600,4441.03,4457.95,4763.59,4520.51,4550.77,4348.21,4277.95,3942.05,1655,1692,3.232,0,0,0,0,
23,4462.05,4043.08,4363.59,4138.97,4071.79,3599.49,4444.1,4457.95,4755.38,4518.46,4553.33,4350.26,4280.51,3941.54,1654,1691,3.24,0,0,0,0,
24,4466.15,4051.79,4369.23,4153.85,4080,3593.33,4443.59,4457.44,4748.72,4514.87,4548.21,4349.23,4281.03,3942.56,1655,1693,3.248,0,0,0,0,
25,4461.54,4051.79,4364.1,4154.87,4078.97,3588.21,4442.05,4447.18,4740,4505.64,4537.44,4340,4267.69,3932.82,1655,1692,3.256,0,0,0,0,
26,4456.41,4056.41,4359.49,4150.77,4078.97,3592.82,4441.54,4441.03,4736.41,4498.97,4536.92,4337.44,4262.56,3929.23,1655,1693,3.263,0,0,0,0,
27,4466.15,4064.62,4365.64,4160,4081.54,3601.03,4442.56,4452.31,4744.62,4497.44,4541.03,4343.59,4275.38,3940,1656,1690,3.271,0,0,0,0,
28,4478.97,4070.26,4372.82,4172.82,4085.64,3606.67,4448.21,4462.05,4752.82,4500.51,4545.64,4353.33,4282.56,3945.64,1655,1692,3.279,0,0,0,0,
29,4476.41,4070.77,4373.33,4172.31,4085.64,3603.59,4450.26,4459.49,4750.77,4510.77,4551.28,4357.95,4279.49,3944.1,1656,1691,3.287,0,0,0,0,
30,4471.28,4064.62,4369.23,4160,4079.49,3593.85,4445.64,4458.97,4748.21,4522.05,4552.31,4356.41,4280.51,3945.64,1655,1692,3.295,0,0,0,0,
31,4473.33,4057.95,4367.69,4151.28,4075.9,3588.21,4443.08,4460.51,4750.26,4523.08,4551.28,4355.9,4281.54,3945.64,1656,1693,3.303,0,0,0,0,
32,4466.15,4051.28,4367.18,4152.82,4070.77,3586.15,4442.56,4458.46,4750.77,4516.41,4551.79,4354.36,4280,3942.05,1655,1692,3.31,0,0,0,0,
33,4459.49,4045.64,4367.69,4153.85,4066.67,3585.64,4442.56,4457.95,4752.31,4519.49,4552.82,4355.38,4283.08,3944.1,1655,1692,3.319,0,0,0,0,
34,4467.69,4047.69,4371.28,4150.26,4072.82,3588.72,4445.64,4460.51,4754.36,4525.64,4554.36,4362.05,4285.64,3947.69,1655,1692,3.326,0,0,0,0,
35,4467.69,4047.69,4369.23,4149.23,4078.46,3590.26,4447.18,4458.97,4749.23,4514.87,4549.23,4361.54,4281.03,3945.13,1655,1693,3.334,0,0,0,0,
36,4456.41,4041.03,4362.05,4150.77,4075.38,3590.77,4445.64,4455.9,4742.05,4501.54,4538.97,4353.85,4276.41,3941.54,1654,1693,3.343,0,0,0,0,
37,4456.41,4040.51,4363.59,4151.79,4073.85,3591.79,4446.67,4456.92,4740,4503.08,4539.49,4351.28,4278.97,3944.1,1654,1694,3.349,0,0,0,0,
38,4460.51,4047.18,4367.69,4151.28,4074.87,3591.28,4446.67,4458.97,4736.92,4503.59,4539.49,4350.26,4276.92,3940,1654,1692,3.357,0,0,0,0,
39,4458.46,4053.85,4367.18,4151.28,4075.38,3593.85,4444.62,4457.44,4734.87,4500,4533.33,4350.26,4272.31,3932.82,1653,1693,3.365,0,0,0,0,
40,4465.64,4059.49,4372.31,4157.95,4085.13,3604.1,4448.72,4458.97,4746.67,4508.72,4542.56,4356.41,4278.97,3939.49,1655,1694,3.373,0,0,0,0,
41,4474.87,4062.56,4377.44,4168.21,4090.77,3605.64,4451.28,4467.18,4758.97,4523.59,4554.87,4364.62,4290.77,3950.26,1654,1693,3.381,0,0,0,0,
42,4469.74,4061.54,4374.87,4170.26,4085.13,3595.38,4447.18,4473.33,4755.38,4525.13,4548.21,4366.67,4290.77,3946.67,1654,1694,3.389,0,0,0,0,
43,4462.05,4058.97,4373.33,4160,4078.97,3589.23,4444.1,4473.33,4749.74,4520,4539.49,4361.54,4281.03,3941.54,1654,1693,3.396,0,0,0,0,
44,4461.03,4055.38,4375.9,4152.31,4078.46,3591.79,4448.21,4471.79,4754.36,4522.56,4543.08,4355.38,4280,3941.03,1654,1694,3.404,0,0,0,0,
45,4458.97,4046.15,4372.82,4153.33,4076.41,3593.33,4448.72,4467.18,4748.21,4510.26,4541.03,4349.74,4279.49,3932.31,1654,1691,3.412,0,0,0,0,
46,4455.9,4037.95,4366.15,4153.85,4075.38,3591.79,4442.56,4458.97,4731.79,4489.74,4529.23,4347.18,4270.26,3926.15,1653,1692,3.42,0,0,0,0,
47,4456.41,4037.95,4366.15,4151.79,4074.36,3589.23,4437.44,4457.95,4728.21,4493.85,4523.08,4352.31,4263.59,3927.18,1654,1690,3.428,0,0,0,0,
48,4452.82,4036.41,4366.67,4150.26,4066.67,3590.26,4438.46,4460,4734.87,4502.05,4527.18,4357.95,4264.62,3928.72,1654,1690,3.436,0,0,0,0,
49,4452.31,4032.82,4368.21,4150.77,4067.18,3591.79,4443.08,4458.97,4733.85,4493.85,4534.36,4355.9,4270.77,3932.82,1654,1689,3.443,0,0,0,0,
50,4458.97,4038.97,4374.36,4154.36,4077.95,3592.31,4445.64,4461.03,4734.36,4495.9,4538.97,4358.97,4278.97,3942.05,1654,1690,3.451,0,0,0,0,
51,4462.05,4047.18,4379.49,4155.9,4080,3595.38,4444.62,4463.08,4744.62,4517.44,4541.54,4368.72,4284.62,3946.67,1656,1689,3.459,0,0,0,0,
52,4461.54,4044.62,4380,4152.82,4076.41,3596.92,4443.08,4462.05,4750.77,4524.62,4544.1,4368.21,4281.54,3945.13,1654,1689,3.467,0,0,0,0,
53,4457.44,4041.54,4374.87,4150.26,4075.9,3591.28,4438.97,4461.54,4745.64,4512.31,4540.51,4356.92,4277.95,3940.51,1655,1690,3.475,0,0,0,0,
54,4448.21,4043.08,4365.13,4151.79,4072.31,3586.67,4430.26,4458.97,4735.38,4505.13,4535.9,4347.18,4275.9,3929.74,1656,1689,3.482,0,0,0,0,
55,4448.21,4044.1,4363.08,4152.82,4071.28,3586.67,4426.15,4456.92,4732.31,4505.13,4534.36,4346.15,4273.33,3926.15,1655,1690,3.49,0,0,0,0,
56,4456.92,4047.18,4368.72,4151.28,4074.87,3587.18,4428.21,4457.44,4735.38,4507.18,4533.85,4349.23,4271.79,3932.82,1656,1690,3.498,0,0,0,0,
57,4458.46,4046.67,4365.64,4151.79,4070.26,3585.64,4427.69,4457.44,4730.77,4503.59,4532.82,4349.74,4272.31,3932.82,1655,1691,3.506,0,0,0,0,
58,4456.92,4039.49,4367.18,4155.38,4064.1,3585.13,4426.67,4454.87,4718.97,4493.33,4532.82,4347.69,4276.41,3931.28,1656,1692,3.514,0,0,0,0,
59,4458.97,4036.41,4376.92,4154.36,4066.67,3585.13,4431.79,4455.9,4719.49,4492.31,4534.87,4351.28,4277.95,3941.03,1654,1692,3.522,0,0,0,0,
60,4462.05,4032.82,4378.46,4152.31,4069.23,3586.67,4437.44,4460.51,4731.79,4505.64,4537.44,4359.49,4276.92,3947.18,1655,1692,3.529,0,0,0,0,
61,4461.03,4022.56,4373.33,4151.79,4066.15,3586.67,4434.87,4460,4736.92,4511.28,4538.46,4359.49,4277.44,3942.05,1655,1693,3.537,0,0,0,0,
62,4458.46,4016.41,4371.79,4150.77,4065.13,3585.64,4430.77,4458.97,4734.36,4506.67,4536.92,4355.9,4278.97,3939.49,1655,1691,3.545,0,0,0,0,
63,4461.03,4019.49,4375.9,4154.36,4070.77,3586.67,4433.33,4461.03,4731.28,4503.08,4536.92,4360.51,4278.97,3943.59,1654,1692,3.553,0,0,0,0,
64,4465.13,4020,4380.51,4158.97,4077.44,3587.69,4435.38,4462.56,4740,4505.13,4546.15,4367.18,4280,3944.62,1654,1691,3.561,0,0,0,0,
65,4461.03,4017.44,4382.05,4161.54,4074.87,3588.21,4432.31,4461.03,4748.72,4516.92,4551.79,4366.15,4283.59,3944.1,1654,1692,3.568,0,0,0,0,
66,4461.03,4018.46,4381.54,4165.13,4076.41,3588.21,4431.79,4460,4742.05,4525.13,4545.13,4365.13,4287.69,3948.72,1654,1692,3.576,0,0,0,0,
67,4471.28,4021.03,4382.05,4169.23,4085.13,3588.21,4438.97,4459.49,4732.31,4514.36,4538.97,4368.21,4289.23,3954.36,1655,1693,3.584,0,0,0,0,
68,4474.36,4018.46,4383.59,4170.77,4080,3588.21,4444.1,4458.46,4734.36,4504.1,4540,4365.13,4283.59,3948.21,1656,1693,3.592,0,0,0,0,
69,4470.77,4016.92,4384.1,4171.79,4073.85,3590.26,4442.05,4459.49,4733.85,4505.64,4540.51,4364.62,4280,3945.13,1654,1693,3.6,0,0,0,0,
70,4472.31,4020.51,4383.08,4171.79,4086.67,3591.79,4441.03,4460,4729.23,4507.18,4543.59,4367.69,4287.69,3952.82,1656,1692,3.608,0,0,0,0,
71,4475.38,4021.54,4380,4168.72,4092.31,3589.23,4441.54,4458.46,4732.31,4510.77,4550.77,4359.49,4294.36,3950.26,1654,1691,3.615,0,0,0,0,
72,4473.85,4018.97,4378.46,4167.69,4085.13,3588.72,4441.03,4458.97,4734.36,4521.03,4552.31,4356.41,4293.33,3944.62,1656,1692,3.623,0,0,0,0,
73,4473.33,4015.9,4380.51,4169.74,4086.67,3590.77,4441.54,4461.03,4733.85,4525.13,4546.67,4364.1,4293.33,3951.28,1656,1691,3.631,0,0,0,0,
74,4469.74,4008.72,4379.49,4165.64,4088.21,3590.77,4442.05,4460.51,4735.9,4515.38,4540,4363.08,4291.79,3950.26,1655,1692,3.639,0,0,0,0,
75,4460,4001.54,4373.85,4157.95,4076.92,3588.21,4440.51,4459.49,4734.36,4503.59,4537.44,4353.85,4284.62,3941.54,1655,1690,3.647,0,0,0,0,
76,4461.54,4002.56,4374.36,4162.05,4074.36,3586.15,4440,4458.97,4731.79,4510.26,4541.54,4357.95,4287.18,3945.13,1654,1691,3.654,0,0,0,0,
77,4472.82,4007.69,4381.54,4171.28,4082.56,3585.13,4441.54,4458.97,4735.9,4521.03,4544.1,4367.18,4296.92,3948.21,1654,1690,3.662,0,0,0,0,
78,4474.87,4006.15,4383.59,4169.23,4086.67,3586.67,4442.05,4458.97,4733.33,4516.92,4540.51,4366.67,4294.36,3944.62,1654,1690,3.67,0,0,0,0,
79,4471.28,4004.1,4384.1,4168.21,4088.21,3589.74,4442.56,4458.46,4722.05,4512.31,4539.49,4363.08,4290.26,3950.77,1654,1690,3.678,0,0,0,0,
80,4475.38,4005.64,4389.74,4174.87,4090.77,3588.72,4443.59,4457.95,4725.64,4513.85,4552.31,4367.18,4296.41,3961.54,1653,1690,3.686,0,0,0,0,
81,4476.41,4006.67,4388.21,4172.31,4090.77,3587.18,4443.08,4460,4733.85,4507.69,4555.9,4370.77,4298.46,3955.38,1654,1690,3.694,0,0,0,0,
82,4470.26,4004.1,4379.49,4163.59,4085.64,3587.69,4441.03,4460,4729.23,4502.05,4541.03,4364.1,4292.82,3943.59,1653,1690,3.701,0,0,0,0,
83,4471.28,4002.56,4378.97,4164.1,4084.1,3586.15,4440.51,4457.95,4728.21,4512.31,4541.03,4360,4291.79,3945.13,1654,1691,3.709,0,0,0,0,
84,4475.38,4003.59,4381.54,4169.74,4088.21,3586.15,4441.54,4457.95,4735.9,4522.56,4553.85,4364.1,4296.92,3953.33,1654,1690,3.717,0,0,0,0,
85,4473.33,4002.56,4379.49,4168.21,4091.79,3589.74,4445.13,4461.03,4738.46,4522.05,4555.38,4367.18,4298.97,3954.87,1653,1691,3.725,0,0,0,0,
86,4471.79,4001.03,4379.49,4164.62,4088.72,3591.28,4448.72,4460,4733.85,4518.46,4548.72,4365.13,4295.38,3950.26,1655,1689,3.733,0,0,0,0,
87,4472.31,3997.44,4380.51,4169.23,4084.1,3591.28,4446.15,4449.23,4725.64,4513.33,4544.1,4361.54,4288.21,3946.67,1653,1691,3.74,0,0,0,0,
88,4465.64,3990.26,4379.49,4171.79,4083.59,3594.87,4444.62,4445.64,4719.49,4506.15,4535.9,4355.9,4280,3942.56,1654,1691,3.748,0,0,0,0,
89,4462.05,3989.74,4378.46,4164.1,4078.46,3594.36,4446.67,4454.36,4724.62,4503.59,4534.36,4355.9,4279.49,3939.49,1654,1691,3.756,0,0,0,0,
90,4471.28,3999.49,4381.54,4169.23,4077.44,3586.67,4444.1,4458.46,4732.82,4514.87,4547.69,4364.1,4289.23,3946.15,1654,1691,3.764,0,0,0,0,
91,4476.92,4007.18,4383.08,4184.1,4086.67,3586.15,4440,4457.95,4736.41,4524.62,4556.41,4369.23,4296.41,3955.38,1653,1692,3.772,0,0,0,0,
92,4473.85,4005.13,4380,4180.51,4093.33,3590.77,4441.54,4460.51,4735.9,4521.54,4553.33,4366.15,4295.9,3953.85,1654,1692,3.78,0,0,0,0,
93,4474.87,4005.64,4380.51,4168.72,4091.28,3588.21,4442.56,4461.03,4733.33,4523.08,4552.31,4365.64,4296.41,3949.74,1654,1692,3.787,0,0,0,0,
94,4476.92,4006.67,4382.56,4171.28,4090.26,3586.15,4441.54,4458.46,4733.33,4524.1,4557.44,4368.21,4299.49,3953.33,1654,1692,3.795,0,0,0,0,
95,4472.82,3998.97,4376.41,4174.87,4086.67,3589.23,4445.64,4460,4734.36,4513.33,4555.9,4365.64,4296.41,3949.23,1654,1691,3.803,0,0,0,0,
96,4472.82,3990.26,4374.36,4167.69,4080.51,3591.28,4453.33,4460,4734.87,4507.18,4553.33,4364.1,4293.33,3945.13,1653,1692,3.811,0,0,0,0,
97,4470.77,3990.26,4383.08,4164.62,4082.56,3590.26,4457.95,4459.49,4734.36,4511.79,4554.87,4366.67,4292.82,3949.74,1655,1691,3.819,0,0,0,0,
98,4462.56,3991.79,4384.62,4168.72,4083.59,3588.72,4458.46,4460,4732.31,4508.21,4552.31,4366.15,4284.62,3947.69,1654,1691,3.827,0,0,0,0,
99,4461.03,3990.26,4376.41,4176.41,4080.51,3587.18,4457.44,4460.51,4733.85,4509.23,4550.77,4365.13,4278.46,3941.03,1655,1692,3.834,0,0,0,0,
100,4465.64,3992.82,4372.82,4176.41,4085.13,3589.74,4456.92,4462.05,4738.46,4521.54,4553.33,4365.64,4284.1,3941.54,1654,1691,3.842,0,0,0,0,
101,4463.08,3999.49,4372.31,4168.72,4088.21,3592.82,4458.46,4461.54,4737.95,4524.62,4552.82,4363.08,4289.23,3942.05,1654,1692,3.85,0,0,0,0,
102,4461.03,4004.62,4370.77,4175.9,4090.26,3592.82,4459.49,4460,4738.46,4522.05,4552.31,4363.08,4292.31,3940.51,1653,1692,3.858,0,0,0,0,
103,4465.13,4005.64,4371.28,4184.62,4094.87,3590.26,4451.79,4461.54,4746.15,4524.62,4557.44,4366.67,4297.95,3943.59,1654,1693,3.866,0,0,0,0,
104,4466.67,4003.08,4373.33,4174.36,4091.79,3589.23,4446.67,4462.56,4750.77,4525.13,4560,4365.64,4298.46,3945.64,1653,1692,3.873,0,0,0,0,
105,4465.13,3999.49,4374.87,4163.08,4081.54,3588.21,4449.74,4460,4745.13,4521.54,4557.44,4364.1,4294.36,3945.13,1654,1692,3.881,0,0,0,0,
106,4462.56,3994.87,4372.82,4169.23,4077.95,3586.67,4450.77,4458.46,4737.44,4522.05,4554.36,4365.13,4293.85,3944.1,1654,1691,3.889,0,0,0,0,
107,4460,3989.23,4372.31,4176.92,4078.46,3587.18,4447.69,4458.46,4732.82,4521.03,4553.33,4363.59,4292.82,3941.54,1653,1692,3.897,0,0,0,0,
108,4460.51,3987.69,4375.38,4173.85,4076.92,3587.69,4447.18,4456.41,4732.31,4511.79,4553.33,4363.08,4290.26,3941.03,1655,1691,3.905,0,0,0,0,
109,4462.05,3995.9,4375.9,4168.72,4074.87,3586.15,4447.18,4455.9,4733.33,4504.62,4552.82,4366.15,4290.77,3943.59,1653,1691,3.913,0,0,0,0,
110,4465.64,4003.59,4375.9,4169.74,4074.36,3586.15,4443.59,4458.46,4733.85,4505.13,4552.82,4370.26,4293.33,3942.56,1655,1692,3.92,0,0,0,0,
111,4472.31,4004.1,4380.51,4177.44,4083.08,3586.15,4449.23,4460.51,4737.95,4512.31,4555.9,4375.9,4296.92,3948.72,1654,1691,3.928,0,0,0,0,
112,4476.41,4004.62,4382.56,4177.44,4088.21,3586.67,4455.38,4461.54,4742.56,4521.03,4559.49,4374.87,4300.51,3956.92,1654,1692,3.936,0,0,0,0,
113,4470.26,3997.95,4375.9,4166.15,4076.41,3586.15,4448.21,4457.95,4739.49,4523.08,4556.41,4363.08,4297.95,3948.72,1654,1691,3.944,0,0,0,0,
114,4463.59,3992.82,4371.79,4169.23,4075.38,3586.67,4441.03,4450.26,4732.82,4518.46,4550.77,4354.87,4292.82,3938.97,1654,1692,3.952,0,0,0,0,
115,4463.59,4002.05,4370.26,4182.56,4090.77,3587.69,4445.13,4449.23,4732.82,4518.46,4553.33,4356.92,4294.36,3943.59,1654,1690,3.959,0,0,0,0,
116,4462.05,4003.08,4366.67,4178.97,4090.26,3588.21,4448.72,4458.46,4737.44,4524.1,4555.38,4358.46,4294.36,3943.59,1654,1691,3.967,0,0,0,0,
117,4457.44,3988.72,4365.13,4165.64,4075.9,3588.72,4447.69,4458.46,4738.46,4520,4545.64,4350.77,4284.1,3930.26,1655,1689,3.975,0,0,0,0,
118,4453.85,3984.62,4363.08,4163.08,4073.85,3587.69,4445.13,4444.62,4729.23,4507.69,4536.41,4342.56,4275.38,3923.59,1654,1690,3.983,0,0,0,0,
119,4455.9,3990.77,4364.1,4167.18,4076.92,3586.15,4447.18,4441.03,4724.62,4502.05,4542.05,4346.67,4281.54,3931.28,1654,1691,3.991,0,0,0,0,
120,4460.51,3991.79,4373.33,4170.26,4074.87,3585.13,4455.38,4454.87,4732.31,4506.67,4553.85,4361.03,4291.79,3940.51,1654,1692,3.999,0,0,0,0,
121,4462.56,3990.77,4377.95,4167.69,4074.36,3586.15,4461.54,4462.05,4737.44,4509.74,4556.92,4366.15,4290.26,3942.56,1654,1691,4.006,0,0,0,0,
122,4459.49,3987.69,4373.33,4160.51,4074.36,3587.18,4456.92,4454.87,4734.87,4508.72,4554.87,4357.95,4286.15,3940.51,1654,1692,4.014,0,0,0,0,
123,4458.97,3989.23,4374.36,4170.77,4075.38,3585.64,4455.38,4451.28,4734.87,4510.77,4553.85,4358.46,4289.74,3941.54,1654,1691,4.022,0,0,0,0,
124,4465.13,3997.95,4382.56,4185.13,4083.08,3587.69,4458.97,4456.41,4735.38,4512.82,4553.33,4367.69,4290.77,3941.54,1654,1692,4.03,0,0,0,0,
125,4467.18,3998.46,4385.64,4176.92,4087.18,3590.26,4455.38,4460,4735.9,4511.79,4555.9,4366.15,4284.1,3944.1,1655,1691,4.038,0,0,0,0,
126,4461.54,3990.26,4374.87,4164.62,4073.85,3581.03,4446.15,4452.82,4734.87,4508.21,4551.28,4355.9,4279.49,3938.97,1654,1692,4.045,0,0,0,0,
127,4456.92,3982.05,4366.15,4164.1,4065.13,3572.82,4442.05,4443.59,4727.69,4503.08,4542.05,4354.87,4279.49,3927.69,1655,1691,4.053,0,0,0,0,
128,4460.51,3985.64,4374.36,4171.79,4075.9,3585.13,4446.15,4448.21,4727.69,4503.59,4546.67,4359.49,4280,3932.82,1653,1692,4.061,0,0,0,0,
0,4459.49,3989.74,4375.9,4168.21,4081.03,3591.79,4447.69,4458.46,4736.41,4506.15,4555.38,4358.97,4282.05,3940.51,1655,1693,4.069,0,0,0,0,
1,4448.72,3980,4364.62,4154.36,4068.72,3577.44,4444.1,4457.95,4734.87,4505.13,4546.67,4356.92,4278.46,3930.77,1653,1691,4.077,0,0,0,0,
2,4442.05,3968.72,4364.1,4158.46,4062.05,3574.87,4443.59,4453.33,4728.72,4505.64,4536.41,4354.36,4268.72,3924.1,1653,1692,4.085,0,0,0,0,
3,4444.1,3971.79,4366.15,4169.23,4069.23,3587.69,4448.21,4456.41,4736.41,4507.69,4544.1,4351.79,4266.67,3926.15,1654,1691,4.092,0,0,0,0,
4,4442.56,3979.49,4356.92,4158.97,4074.36,3589.23,4451.28,4460,4747.18,4507.18,4552.31,4349.23,4273.33,3924.62,1654,1692,4.1,0,0,0,0,
5,4441.54,3980,4358.46,4152.31,4072.82,3586.15,4448.21,4461.54,4745.13,4511.28,4552.82,4352.82,4282.56,3929.23,1654,1691,4.108,0,0,0,0,
6,4454.36,3982.56,4371.28,4168.72,4074.87,3588.72,4446.67,4461.03,4737.95,4521.54,4554.87,4359.49,4287.18,3943.08,1654,1693,4.116,0,0,0,0,
7,4462.56,3987.69,4371.79,4175.38,4077.95,3588.72,4446.15,4457.44,4737.95,4524.62,4556.92,4361.03,4286.15,3944.1,1654,1692,4.124,0,0,0,0,
8,4452.31,3984.1,4364.1,4164.1,4071.28,3585.64,4441.54,4456.92,4740,4515.38,4553.33,4351.79,4280.51,3933.33,1653,1692,4.132,0,0,0,0,
9,4447.69,3981.03,4364.62,4159.49,4068.21,3586.67,4440.51,4458.46,4735.9,4508.72,4550.26,4349.74,4277.95,3931.28,1654,1692,4.139,0,0,0,0,
10,4458.97,3986.67,4370.77,4164.62,4075.9,3585.13,4444.1,4454.36,4732.31,4507.69,4553.33,4358.97,4284.1,3940.51,1653,1692,4.147,0,0,0,0,
11,4463.08,3990.26,4370.26,4167.18,4075.38,3585.64,4443.08,4447.69,4731.79,4506.67,4555.38,4362.56,4289.74,3944.62,1655,1692,4.155,0,0,0,0,
12,4458.46,3988.72,4369.74,4169.23,4071.79,3588.72,4436.41,4446.15,4733.33,4516.41,4559.49,4363.08,4294.36,3943.59,1654,1691,4.163,0,0,0,0,
13,4458.46,3991.28,4373.85,4171.28,4076.92,3579.49,4431.79,4447.18,4734.87,4524.62,4563.08,4365.13,4295.38,3946.67,1654,1692,4.171,0,0,0,0,
14,4459.49,3990.77,4370.26,4168.21,4078.46,3572.31,4429.74,4444.62,4730.26,4513.85,4556.41,4360.51,4287.18,3944.62,1655,1691,4.178,0,0,0,0,
15,4456.92,3988.21,4364.1,4167.18,4076.92,3585.64,4431.28,4442.56,4724.1,4505.64,4550.26,4354.87,4284.1,3940,1655,1693,4.186,0,0,0,0,
16,4450.26,3986.67,4365.13,4168.72,4077.44,3589.74,4431.79,4443.08,4726.15,4512.31,4552.31,4352.82,4288.21,3941.54,1655,1692,4.194,0,0,0,0,
17,4443.59,3978.97,4367.69,4165.13,4071.79,3574.87,4426.67,4439.49,4728.21,4509.74,4553.85,4351.28,4285.64,3936.92,1655,1692,4.202,0,0,0,0,
18,4441.54,3972.82,4362.56,4163.08,4070.26,3570.77,4425.13,4434.36,4723.59,4502.05,4550.26,4348.72,4277.95,3926.15,1655,1691,4.21,0,0,0,0,
19,4441.54,3974.87,4357.44,4161.54,4073.33,3575.9,4426.15,4433.85,4720.51,4505.13,4548.21,4345.64,4276.92,3925.64,1654,1692,4.217,0,0,0,0,
20,4441.54,3979.49,4359.49,4157.44,4068.72,3572.31,4425.64,4435.9,4719.49,4507.18,4549.74,4343.59,4275.38,3927.69,1655,1691,4.225,0,0,0,0,
21,4445.13,3985.13,4366.15,4163.59,4067.18,3577.95,4433.85,4438.97,4721.03,4505.64,4553.85,4353.85,4277.44,3926.15,1654,1692,4.233,0,0,0,0,
22,4445.64,3987.18,4369.23,4170.26,4076.92,3589.23,4443.08,4444.1,4728.21,4507.69,4556.92,4360.51,4284.1,3934.87,1654,1692,4.241,0,0,0,0,
23,4442.56,3987.18,4368.21,4164.62,4076.92,3582.05,4443.08,4446.67,4732.82,4508.72,4556.41,4357.95,4284.1,3942.56,1654,1692,4.249,0,0,0,0,
24,4446.15,3988.21,4369.23,4165.64,4070.26,3571.79,4438.97,4445.13,4730.26,4509.23,4557.44,4360,4281.03,3934.87,1653,1693,4.257,0,0,0,0,
25,4441.03,3982.56,4366.67,4169.74,4071.28,3572.82,4434.87,4443.08,4721.03,4507.18,4552.82,4355.38,4278.97,3925.64,1654,1692,4.264,0,0,0,0,
26,4428.21,3969.74,4358.97,4159.49,4068.21,3574.87,4428.72,4441.03,4717.95,4505.13,4546.15,4344.62,4274.87,3924.62,1653,1693,4.272,0,0,0,0,
27,4432.31,3972.31,4359.49,4157.44,4065.13,3571.79,4425.64,4440.51,4728.21,4506.67,4549.23,4347.18,4275.38,3927.69,1653,1693,4.28,0,0,0,0,
28,4444.62,3986.15,4366.15,4168.21,4073.85,3572.31,4433.33,4443.08,4736.41,4509.23,4554.87,4353.33,4281.54,3928.72,1652,1693,4.288,0,0,0,0,
29,4442.56,3983.59,4366.67,4169.23,4078.97,3579.49,4442.05,4444.62,4733.33,4506.67,4552.82,4350.77,4278.46,3928.21,1653,1692,4.296,0,0,0,0,
30,4436.92,3972.82,4364.62,4163.59,4075.9,3586.15,4443.59,4446.67,4731.79,4504.62,4550.77,4350.26,4272.31,3926.15,1652,1692,4.304,0,0,0,0,
31,4438.97,3979.49,4364.62,4166.67,4079.49,3586.67,4442.56,4448.21,4735.9,4506.67,4553.33,4348.72,4273.85,3924.62,1653,1692,4.311,0,0,0,0,
32,4440.51,3991.28,4364.1,4170.77,4085.13,3587.18,4443.08,4446.15,4735.38,4510.26,4553.33,4344.1,4279.49,3925.64,1653,1691,4.319,0,0,0,0,
33,4442.05,3989.74,4363.59,4168.72,4079.49,3586.67,4442.05,4442.56,4729.23,4501.03,4553.33,4346.67,4278.97,3925.64,1655,1692,4.327,0,0,0,0,
34,4443.59,3985.13,4363.59,4167.69,4072.31,3576.92,4438.46,4440,4723.08,4489.74,4554.36,4350.77,4276.41,3925.64,1655,1691,4.335,0,0,0,0,
35,4446.15,3993.33,4365.64,4169.74,4077.95,3576.92,4438.97,4440,4725.13,4498.97,4557.95,4355.38,4284.1,3933.33,1655,1692,4.343,0,0,0,0,
36,4457.95,4002.56,4373.85,4173.33,4085.13,3585.13,4439.49,4442.56,4733.85,4511.79,4566.15,4365.13,4293.85,3945.64,1656,1691,4.35,0,0,0,0,
37,4464.1,3998.97,4374.36,4172.31,4079.49,3577.44,4436.92,4444.62,4735.9,4509.23,4569.23,4369.23,4296.41,3950.26,1655,1692,4.358,0,0,0,0,
38,4458.46,3991.28,4368.21,4170.77,4073.33,3570.26,4430.26,4442.05,4731.79,4512.31,4568.21,4365.64,4295.38,3950.77,1656,1692,4.366,0,0,0,0,
39,4457.95,3994.87,4371.79,4173.33,4072.82,3579.49,4429.23,4446.67,4739.49,4523.08,4571.28,4367.18,4297.95,3957.95,1655,1692,4.374,0,0,0,0,
40,4462.05,4001.03,4376.41,4174.87,4069.74,3581.54,4436.92,4456.41,4750.77,4526.67,4574.36,4369.74,4300.51,3958.97,1655,1692,4.382,0,0,0,0,
41,4461.03,3995.38,4371.79,4172.31,4064.62,3571.79,4436.41,4451.28,4743.59,4522.05,4569.23,4364.1,4296.92,3949.74,1655,1691,4.39,0,0,0,0,
42,4458.97,3991.28,4367.69,4171.28,4065.13,3576.92,4433.33,4441.03,4730.26,4513.33,4566.67,4358.46,4294.36,3945.13,1655,1691,4.397,0,0,0,0,
43,4459.49,3999.49,4371.28,4173.85,4073.33,3590.26,4438.97,4443.08,4732.31,4507.69,4568.72,4357.95,4293.33,3946.67,1655,1692,4.405,0,0,0,0,
44,4460.51,4005.13,4372.82,4172.82,4074.36,3586.67,4436.41,4441.54,4734.36,4508.21,4561.54,4356.92,4289.23,3945.64,1654,1693,4.413,0,0,0,0,
45,4459.49,4002.05,4368.21,4168.72,4071.28,3577.44,4424.62,4433.33,4726.67,4506.15,4553.33,4352.31,4287.18,3940.51,1654,1694,4.441,0,0,0,0,
46,4460,4001.54,4368.21,4175.9,4083.59,3585.13,4430.77,4437.95,4727.69,4506.67,4559.49,4354.36,4294.36,3943.08,1655,1693,4.441,0,0,0,0,
47,4461.54,4004.62,4373.85,4186.15,4090.77,3589.74,4442.56,4444.1,4733.85,4511.79,4569.74,4361.54,4297.44,3950.77,1654,1693,4.441,0,0,0,0,
48,4461.03,4003.59,4376.41,4186.67,4075.9,3578.97,4434.36,4441.54,4733.33,4510.26,4570.77,4364.1,4295.38,3949.74,1655,1693,4.445,0,0,0,0,
49,4458.97,4001.54,4374.87,4181.03,4068.72,3573.85,4425.64,4442.05,4733.85,4507.69,4567.69,4364.1,4293.85,3944.1,1655,1694,4.452,0,0,0,0,
50,4457.95,3995.9,4373.33,4173.33,4072.82,3574.87,4428.21,4441.03,4733.33,4506.67,4558.97,4361.03,4286.67,3941.03,1657,1694,4.46,0,0,0,0,
51,4457.95,3991.28,4374.36,4169.23,4068.21,3576.92,4428.21,4438.97,4730.26,4506.67,4555.38,4360.51,4286.15,3943.08,1656,1693,4.468,0,0,0,0,
52,4458.97,3995.38,4376.41,4171.79,4066.67,3584.1,4429.74,4442.56,4735.38,4513.33,4565.64,4365.64,4292.31,3946.15,1657,1694,4.476,0,0,0,0,
53,4459.49,3995.38,4376.41,4171.79,4069.74,3589.23,4435.9,4445.13,4746.15,4517.44,4572.31,4368.72,4294.36,3946.15,1658,1693,4.483,0,0,0,0,
54,4456.92,3988.72,4370.77,4167.18,4062.56,3586.15,4435.9,4444.1,4745.64,4518.97,4570.26,4365.64,4293.85,3943.59,1656,1694,4.491,0,0,0,0,
55,4453.85,3988.72,4364.62,4167.69,4056.41,3579.49,4429.74,4443.59,4735.9,4521.03,4568.21,4360.51,4289.23,3941.54,1656,1691,4.499,0,0,0,0,
56,4455.38,3992.82,4366.67,4169.74,4062.05,3575.38,4428.21,4438.97,4732.82,4513.85,4566.15,4357.44,4286.15,3942.05,1654,1692,4.507,0,0,0,0,
57,4459.49,3992.31,4373.33,4171.28,4070.26,3574.36,4427.69,4431.79,4734.36,4504.62,4565.64,4359.49,4292.82,3944.1,1655,1692,4.515,0,0,0,0,
58,4460.51,3989.74,4371.79,4170.77,4066.15,3572.31,4425.64,4427.18,4733.85,4505.64,4563.08,4360,4290.77,3944.1,1654,1692,4.522,0,0,0,0,
59,4458.46,3987.18,4363.59,4166.15,4054.87,3576.92,4426.15,4428.72,4730.77,4506.67,4556.41,4355.9,4278.46,3940.51,1654,1692,4.53,0,0,0,0,
60,4457.95,3988.72,4366.15,4168.21,4063.08,3587.18,4429.74,4437.44,4734.36,4503.59,4554.36,4356.92,4278.46,3940,1654,1692,4.538,0,0,0,0,
61,4458.46,3991.79,4373.85,4173.33,4075.38,3582.56,4431.28,4443.59,4744.62,4507.18,4555.38,4358.97,4281.54,3942.56,1654,1692,4.546,0,0,0,0,
62,4457.95,3991.79,4370.77,4169.74,4068.72,3573.85,4429.23,4443.08,4748.72,4514.36,4559.49,4357.44,4283.08,3941.54,1654,1691,4.554,0,0,0,0,
63,4457.44,3991.28,4364.1,4164.62,4065.13,3583.59,4429.23,4443.59,4746.15,4520.51,4567.69,4356.41,4292.82,3941.03,1654,1693,4.562,0,0,0,0,
64,4458.46,3991.28,4365.13,4168.72,4075.38,3590.77,4430.77,4448.72,4748.72,4522.56,4571.28,4356.41,4296.92,3942.05,1654,1691,4.569,0,0,0,0,
65,4460,3994.87,4368.21,4174.36,4076.92,3586.15,4432.31,4450.26,4752.31,4525.13,4570.26,4359.49,4296.41,3943.59,1654,1692,4.577,0,0,0,0,
66,4460.51,3997.95,4366.67,4171.28,4072.31,3585.64,4434.36,4449.23,4751.79,4527.18,4571.79,4361.54,4298.97,3945.13,1655,1691,4.585,0,0,0,0,
67,4460,3993.85,4365.64,4166.15,4074.36,3587.69,4435.38,4448.21,4753.33,4524.62,4570.77,4358.46,4297.44,3944.62,1653,1692,4.593,0,0,0,0,
68,4461.03,3993.33,4370.77,4169.23,4076.41,3587.18,4434.36,4447.18,4754.36,4523.08,4570.26,4360,4292.82,3943.59,1655,1691,4.601,0,0,0,0,
69,4461.03,4000,4372.31,4174.36,4072.31,3586.15,4433.33,4446.15,4750.26,4524.62,4572.31,4364.62,4294.36,3944.62,1654,1690,4.609,0,0,0,0,
70,4452.82,3997.44,4366.67,4170.77,4065.64,3579.49,4432.31,4444.62,4747.69,4521.54,4568.21,4360.51,4295.38,3946.15,1655,1692,4.616,0,0,0,0,
71,4445.13,3988.72,4363.08,4163.59,4067.18,3572.82,4431.79,4445.64,4748.72,4514.87,4567.18,4350.77,4289.74,3940,1655,1691,4.624,0,0,0,0,
72,4446.67,3986.15,4365.64,4164.1,4067.18,3572.31,4430.77,4444.1,4747.69,4508.72,4567.69,4348.72,4281.54,3928.21,1654,1692,4.632,0,0,0,0,
73,4447.69,3985.64,4366.67,4167.18,4062.05,3578.46,4432.31,4442.05,4747.69,4506.67,4559.49,4352.31,4278.97,3928.21,1654,1692,4.64,0,0,0,0,
74,4449.74,3989.74,4366.67,4169.74,4067.69,3586.15,4438.97,4450.77,4751.28,4517.44,4560,4355.9,4285.13,3942.56,1654,1692,4.648,0,0,0,0,
75,4453.85,3994.87,4367.18,4170.77,4073.85,3588.21,4444.1,4457.95,4752.82,4526.67,4567.18,4353.85,4288.21,3942.05,1654,1692,4.655,0,0,0,0,
76,4448.21,3990.26,4364.1,4167.69,4067.18,3585.13,4437.95,4449.23,4749.74,4515.9,4560,4349.23,4283.08,3927.69,1653,1693,4.663,0,0,0,0,
77,4445.64,3985.13,4364.62,4165.64,4064.1,3579.49,4430.26,4442.05,4747.69,4505.13,4555.38,4349.74,4280.51,3929.74,1654,1692,4.671,0,0,0,0,
78,4455.38,3991.79,4370.77,4171.28,4068.21,3575.38,4429.23,4446.67,4749.23,4511.79,4566.15,4351.79,4282.05,3941.54,1653,1691,4.679,0,0,0,0,
79,4460.51,4000.51,4372.31,4175.38,4066.15,3575.38,4430.26,4446.67,4751.79,4520,4568.72,4350.77,4281.54,3941.03,1654,1692,4.687,0,0,0,0,
80,4459.49,4004.62,4373.85,4171.79,4068.72,3576.92,4428.72,4442.56,4754.36,4520,4565.64,4356.92,4286.15,3940,1653,1692,4.695,0,0,0,0,
81,4463.08,4004.62,4379.49,4175.38,4076.41,3576.92,4427.18,4445.13,4751.28,4521.54,4569.74,4365.64,4295.38,3945.64,1654,1693,4.702,0,0,0,0,
82,4462.56,4003.08,4378.97,4183.08,4072.82,3574.87,4426.15,4449.23,4751.79,4523.59,4569.74,4363.08,4295.9,3945.64,1655,1692,4.71,0,0,0,0,
83,4460.51,4003.59,4373.85,4178.46,4066.67,3574.87,4426.67,4450.77,4761.03,4526.15,4568.72,4358.46,4292.82,3943.59,1654,1692,4.718,0,0,0,0,
84,4457.95,4001.54,4371.79,4168.21,4066.15,3575.38,4427.18,4447.18,4756.92,4524.62,4568.72,4357.44,4290.26,3942.56,1654,1692,4.726,0,0,0,0,
85,4449.23,3992.31,4366.67,4167.18,4065.13,3574.87,4422.56,4442.56,4741.03,4510.26,4559.49,4348.72,4282.56,3931.79,1653,1693,4.734,0,0,0,0,
86,4442.56,3985.13,4360,4168.72,4060.51,3573.33,4418.46,4442.05,4742.05,4503.59,4550.26,4336.41,4276.41,3923.59,1654,1692,4.741,0,0,0,0,
87,4443.59,3991.79,4361.03,4167.18,4063.08,3574.36,4418.97,4442.56,4752.82,4514.36,4552.82,4337.95,4278.46,3927.18,1653,1692,4.749,0,0,0,0,
88,4445.13,3998.97,4367.18,4167.69,4069.74,3576.41,4420.51,4442.05,4751.79,4515.38,4557.95,4344.1,4280.51,3928.72,1654,1691,4.757,0,0,0,0,
89,4444.62,3992.82,4366.67,4165.13,4067.69,3576.41,4420,4442.05,4748.72,4505.13,4555.38,4341.54,4278.97,3924.62,1653,1692,4.765,0,0,0,0,
90,4443.59,3989.23,4361.03,4162.56,4062.05,3574.36,4413.33,4441.03,4748.21,4503.59,4552.31,4337.95,4278.46,3924.62,1655,1692,4.773,0,0,0,0,
91,4445.64,3996.92,4362.56,4167.18,4065.64,3573.33,4412.31,4440.51,4745.13,4506.15,4552.82,4343.08,4279.49,3925.64,1654,1691,4.781,0,0,0,0,
92,4450.77,4002.56,4367.18,4167.69,4072.31,3576.92,4422.05,4443.59,4754.36,4510.77,4556.92,4350.77,4281.03,3925.64,1654,1692,4.788,0,0,0,0,
93,4453.33,4003.08,4365.64,4166.67,4071.79,3583.59,4429.23,4448.21,4764.62,4520.51,4565.64,4352.82,4289.74,3929.23,1655,1691,4.796,0,0,0,0,
94,4457.44,4004.1,4364.62,4171.28,4070.26,3587.69,4427.69,4447.69,4762.56,4524.62,4566.15,4351.28,4296.41,3931.28,1654,1692,4.804,0,0,0,0,
95,4455.9,4003.08,4366.15,4166.15,4072.82,3587.69,4427.69,4443.08,4758.46,4518.97,4555.9,4349.74,4286.67,3929.23,1654,1692,4.812,0,0,0,0,
96,4448.72,4002.56,4365.13,4153.85,4074.87,3587.18,4430.26,4447.69,4761.54,4518.46,4556.92,4352.31,4282.56,3932.31,1654,1692,4.82,0,0,0,0,
97,4452.82,4006.15,4365.13,4156.41,4075.38,3587.69,4432.31,4460.51,4769.23,4522.56,4570.26,4357.95,4295.38,3942.05,1655,1691,4.827,0,0,0,0,
98,4458.97,4000.51,4366.67,4157.95,4075.9,3589.74,4434.36,4461.03,4771.79,4526.67,4573.33,4359.49,4300.51,3944.1,1654,1691,4.835,0,0,0,0,
99,4450.77,3992.31,4364.1,4152.82,4076.41,3586.15,4429.23,4445.64,4761.54,4523.08,4568.21,4355.38,4290.26,3934.36,1655,1690,4.843,0,0,0,0,
100,4441.03,3992.31,4358.97,4152.82,4071.28,3576.41,4420,4437.95,4751.79,4507.69,4562.56,4348.21,4281.03,3925.64,1655,1691,4.851,0,0,0,0,
101,4444.1,3994.87,4357.44,4152.82,4067.18,3574.36,4415.9,4442.56,4761.54,4505.13,4557.95,4344.62,4281.03,3927.69,1655,1690,4.859,0,0,0,0,
102,4444.62,3994.87,4357.44,4151.28,4066.67,3576.41,4415.38,4443.59,4767.69,4516.92,4555.9,4345.64,4282.05,3931.79,1654,1691,4.867,0,0,0,0,
103,4443.08,3995.38,4355.9,4155.38,4065.13,3571.79,4411.28,4438.46,4755.38,4515.38,4556.41,4345.64,4279.49,3929.74,1654,1691,4.874,0,0,0,0,
104,4447.69,4000,4355.9,4155.9,4070.26,3575.38,4409.23,4439.49,4754.87,4508.72,4562.05,4346.15,4284.62,3928.21,1654,1692,4.882,0,0,0,0,
105,4449.23,4004.62,4358.46,4152.31,4078.97,3588.72,4416.92,4448.72,4768.21,4520.51,4568.21,4350.26,4295.38,3929.74,1654,1691,4.89,0,0,0,0,
106,4446.15,4006.15,4356.41,4152.31,4076.92,3590.77,4423.59,4453.85,4771.79,4526.15,4568.21,4351.28,4291.28,3930.77,1653,1692,4.898,0,0,0,0,
107,4445.64,4002.56,4355.9,4149.74,4075.9,3584.62,4417.95,4447.69,4764.62,4510.77,4566.15,4349.23,4280,3929.74,1655,1692,4.906,0,0,0,0,
108,4447.69,4002.05,4357.95,4145.64,4083.08,3586.67,4415.38,4448.21,4761.54,4507.69,4562.56,4350.26,4281.03,3928.21,1653,1691,4.913,0,0,0,0,
109,4445.13,4005.13,4357.95,4145.64,4080.51,3590.77,4424.1,4460,4767.69,4522.56,4560.51,4351.28,4284.1,3929.74,1654,1693,4.921,0,0,0,0,
110,4441.54,4000,4357.44,4149.23,4072.82,3583.59,4424.1,4457.44,4766.67,4522.56,4565.13,4350.26,4281.03,3929.23,1654,1691,4.929,0,0,0,0,
111,4449.23,3997.95,4362.56,4151.28,4074.36,3573.33,4412.82,4442.56,4756.92,4507.69,4568.21,4352.82,4280,3928.21,1654,1692,4.937,0,0,0,0,
112,4456.41,4001.03,4369.74,4151.79,4074.36,3573.33,4411.79,4446.15,4758.97,4505.13,4568.72,4358.97,4284.1,3935.38,1655,1692,4.945,0,0,0,0,
113,4450.77,3998.46,4366.67,4149.23,4067.18,3577.95,4418.46,4456.41,4768.21,4515.9,4569.23,4358.46,4283.59,3938.97,1654,1692,4.953,0,0,0,0,
114,4441.54,3993.33,4358.46,4138.97,4064.1,3573.33,4415.9,4447.69,4766.15,4513.33,4561.54,4349.74,4278.97,3928.21,1655,1692,4.96,0,0,0,0,
115,4440.51,3998.46,4361.54,4138.46,4069.23,3568.72,4408.72,4438.46,4760,4506.67,4554.36,4346.15,4274.87,3922.56,1654,1692,4.968,0,0,0,0,
116,4444.62,4001.03,4367.69,4148.21,4075.9,3577.95,4413.85,4444.62,4764.1,4507.69,4557.44,4348.72,4272.31,3927.69,1654,1691,4.976,0,0,0,0,
117,4442.05,3992.31,4361.54,4148.21,4077.95,3589.74,4425.64,4449.74,4767.69,4506.67,4554.36,4343.59,4263.59,3922.05,1654,1691,4.984,0,0,0,0,
118,4435.38,3985.13,4352.82,4135.38,4072.31,3586.15,4423.59,4445.64,4764.62,4502.56,4549.74,4337.95,4258.97,3914.87,1656,1691,4.992,0,0,0,0,
119,4435.9,3992.82,4356.41,4134.36,4065.13,3575.38,4414.36,4444.1,4762.56,4507.18,4553.33,4343.59,4271.28,3922.56,1654,1691,4.999,0,0,0,0,
120,4443.08,3999.49,4359.49,4143.08,4069.23,3575.9,4414.87,4447.18,4762.05,4510.26,4557.44,4350.26,4280,3931.79,1655,1692,5.008,0,0,0,0,
121,4443.59,3992.82,4357.95,4141.54,4073.85,3579.49,4417.95,4446.15,4761.03,4507.18,4561.54,4351.28,4274.36,3928.72,1655,1691,5.015,0,0,0,0,
122,4441.03,3993.33,4358.97,4138.97,4071.79,3573.33,4413.33,4445.13,4762.56,4513.85,4568.21,4349.23,4276.41,3925.13,1655,1693,5.023,0,0,0,0,
123,4450.77,4006.15,4364.1,4149.23,4074.87,3574.87,4414.87,4453.85,4766.67,4524.1,4570.26,4352.31,4288.72,3933.85,1656,1691,5.031,0,0,0,0,
124,4461.03,4015.9,4370.26,4157.95,4085.13,3586.15,4424.62,4460.51,4769.74,4526.15,4570.77,4360.51,4293.85,3944.1,1654,1692,5.039,0,0,0,0,
125,4460.51,4012.82,4370.77,4153.85,4085.64,3588.21,4428.21,4452.31,4768.21,4523.59,4571.79,4363.08,4290.26,3943.59,1656,1690,5.046,0,0,0,0,
126,4457.44,4006.67,4366.15,4150.77,4081.03,3584.1,4424.62,4444.62,4766.67,4522.05,4570.26,4355.9,4287.18,3939.49,1656,1690,5.054,0,0,0,0,
127,4457.95,4006.67,4364.62,4155.38,4082.05,3585.64,4420,4447.18,4765.64,4522.56,4570.77,4352.31,4287.69,3940,1656,1690,5.062,0,0,0,0,
128,4458.97,4011.28,4366.67,4155.38,4080.51,3587.69,4416.92,4447.69,4763.59,4525.13,4570.26,4356.41,4291.28,3943.59,1655,1691,5.07,0,0,0,0,
0,4460.51,4014.87,4366.67,4151.28,4074.36,3586.15,4416.41,4443.59,4764.1,4522.05,4569.74,4358.97,4291.79,3949.23,1656,1691,5.078,0,0,0,0,
1,4469.74,4015.9,4367.69,4151.28,4077.95,3586.15,4421.03,4448.21,4766.15,4521.03,4577.44,4362.05,4294.36,3958.97,1655,1691,5.086,0,0,0,0,
2,4482.05,4018.97,4372.31,4157.44,4087.69,3587.69,4425.64,4458.46,4765.64,4527.18,4585.64,4368.21,4303.08,3967.18,1655,1692,5.093,0,0,0,0,
3,4493.33,4025.64,4375.9,4157.95,4086.15,3588.72,4424.62,4458.46,4762.05,4524.62,4584.1,4371.28,4307.69,3974.87,1655,1691,5.101,0,0,0,0,
4,4508.21,4028.21,4378.97,4152.31,4073.33,3583.08,4419.49,4449.23,4762.56,4517.95,4583.08,4373.85,4309.23,3989.23,1653,1692,5.109,0,0,0,0,
5,4530.77,4028.72,4382.56,4161.03,4072.31,3572.82,4414.36,4444.62,4763.08,4521.54,4587.69,4380,4315.9,4007.18,1654,1690,5.117,0,0,0,0,
6,4554.36,4035.9,4387.18,4173.85,4077.44,3571.79,4412.31,4445.13,4756.92,4524.1,4589.74,4385.64,4321.54,4023.59,1653,1690,5.125,0,0,0,0,
7,4576.92,4045.13,4390.77,4169.23,4074.36,3582.56,4413.33,4443.59,4748.21,4516.41,4586.15,4388.72,4319.49,4037.95,1654,1691,5.132,0,0,0,0,
8,4594.87,4048.21,4398.46,4167.18,4072.82,3589.23,4415.9,4442.05,4748.21,4514.87,4586.15,4390.26,4319.49,4049.23,1653,1691,5.14,0,0,0,0,
9,4607.18,4054.87,4409.74,4181.03,4075.9,3587.18,4416.41,4443.59,4758.46,4521.03,4594.36,4394.36,4328.21,4059.49,1654,1692,5.148,0,0,0,0,
10,4622.05,4064.62,4413.85,4187.69,4076.92,3586.67,4416.41,4449.23,4765.64,4523.08,4604.62,4402.56,4337.95,4072.82,1654,1692,5.156,0,0,0,0,
11,4628.72,4059.49,4411.28,4182.05,4077.44,3584.1,4414.87,4450.26,4765.64,4522.56,4604.62,4405.64,4338.46,4079.49,1653,1691,5.164,0,0,0,0,
12,4625.13,4050.26,4413.33,4180.51,4077.95,3576.92,4413.33,4445.64,4762.56,4517.44,4601.54,4405.64,4335.38,4077.95,1654,1691,5.172,0,0,0,0,
13,4625.13,4050.77,4417.95,4182.56,4075.38,3576.92,4414.36,4445.13,4756.41,4510.26,4602.05,4410.77,4332.31,4080,1654,1692,5.179,0,0,0,0,
14,4628.21,4052.82,4416.41,4182.05,4071.79,3578.97,4412.82,4447.18,4749.74,4511.28,4601.03,4413.33,4329.23,4084.62,1654,1691,5.187,0,0,0,0,
15,4622.56,4051.79,4415.9,4182.56,4073.33,3575.38,4411.28,4443.59,4748.72,4514.36,4600.51,4405.64,4328.72,4082.05,1653,1693,5.195,0,0,0,0,
16,4612.82,4049.74,4417.95,4185.13,4074.36,3573.85,4413.33,4442.05,4753.85,4509.74,4601.03,4398.97,4330.26,4073.85,1655,1693,5.203,0,0,0,0,
17,4602.05,4045.64,4414.36,4182.56,4074.87,3576.92,4414.87,4442.56,4751.79,4505.13,4593.85,4395.9,4321.03,4059.49,1654,1692,5.211,0,0,0,0,
18,4585.64,4043.59,4410.77,4181.54,4080.51,3580.51,4417.44,4442.56,4748.21,4505.64,4585.13,4387.69,4308.72,4041.03,1655,1692,5.218,0,0,0,0,
19,4573.33,4046.15,4409.23,4185.13,4081.03,3586.67,4420,4443.59,4753.85,4510.26,4584.62,4380.51,4306.15,4029.23,1655,1691,5.226,0,0,0,0,
20,4568.21,4044.62,4404.1,4182.56,4076.92,3587.69,4420,4444.1,4761.54,4522.56,4588.21,4382.56,4308.72,4024.1,1656,1691,5.234,0,0,0,0,
21,4557.44,4038.97,4397.95,4174.36,4083.08,3586.15,4417.44,4444.1,4757.95,4525.13,4590.26,4382.05,4308.72,4017.95,1656,1691,5.242,0,0,0,0,
22,4542.05,4034.87,4391.79,4170.26,4084.62,3585.13,4415.38,4443.08,4749.23,4506.67,4584.62,4372.82,4302.05,4003.59,1656,1692,5.25,0,0,0,0,
23,4531.28,4032.82,4387.18,4166.67,4070.77,3577.95,4415.38,4442.56,4752.31,4505.13,4577.44,4362.56,4293.33,3988.72,1656,1691,5.258,0,0,0,0,
24,4530.26,4035.9,4391.79,4169.23,4074.87,3578.46,4422.05,4449.74,4764.1,4522.05,4584.62,4365.64,4298.97,3989.23,1655,1691,5.265,0,0,0,0,
25,4526.67,4037.44,4397.95,4175.38,4089.74,3587.69,4428.72,4460.51,4766.67,4515.9,4593.85,4375.38,4307.18,3997.44,1655,1691,5.273,0,0,0,0,
26,4512.31,4025.64,4386.67,4164.1,4078.46,3587.69,4427.18,4456.41,4761.03,4501.03,4586.15,4372.82,4300,3987.69,1655,1691,5.281,0,0,0,0,
27,4500,4013.85,4378.46,4147.69,4064.62,3584.1,4425.13,4444.62,4762.56,4512.31,4577.95,4362.05,4292.31,3969.23,1654,1691,5.289,0,0,0,0,
28,4503.59,4020.51,4388.72,4155.9,4076.92,3587.69,4427.69,4447.18,4766.15,4526.67,4584.1,4367.18,4297.95,3970.77,1654,1692,5.297,0,0,0,0,
29,4507.69,4030.77,4394.87,4170.26,4086.67,3588.72,4428.72,4457.95,4764.1,4523.59,4588.72,4377.95,4302.05,3979.49,1654,1693,5.304,0,0,0,0,
30,4498.46,4028.72,4388.72,4169.23,4082.05,3587.69,4428.21,4458.46,4765.13,4523.08,4583.59,4375.38,4299.49,3975.38,1654,1694,5.312,0,0,0,0,
31,4489.74,4024.62,4388.72,4170.26,4083.08,3589.23,4428.72,4455.38,4768.21,4526.67,4583.08,4371.28,4298.46,3968.21,1654,1693,5.32,0,0,0,0,
32,4490.26,4018.97,4393.85,4167.18,4083.59,3587.18,4429.23,4455.9,4763.59,4522.56,4585.13,4369.74,4297.44,3965.64,1655,1693,5.328,0,0,0,0,
33,4487.69,4014.87,4389.74,4155.9,4076.92,3585.64,4429.74,4458.97,4761.54,4519.49,4576.92,4365.64,4294.87,3961.03,1655,1691,5.336,0,0,0,0,
34,4478.46,4016.92,4384.62,4157.95,4076.92,3586.67,4432.31,4456.41,4764.1,4521.54,4570.26,4366.15,4292.82,3958.46,1655,1693,5.344,0,0,0,0,
35,4472.31,4014.36,4384.1,4165.13,4078.97,3585.64,4430.77,4451.79,4759.49,4518.46,4572.82,4366.15,4287.69,3956.92,1657,1692,5.351,0,0,0,0,
36,4471.28,4005.64,4381.54,4154.36,4074.87,3585.13,4426.67,4452.31,4753.85,4511.28,4569.23,4361.54,4278.97,3946.67,1654,1692,5.359,0,0,0,0,
37,4471.28,4009.74,4382.56,4148.21,4073.85,3588.21,4435.38,4458.46,4760,4514.36,4570.77,4361.03,4281.54,3943.08,1655,1692,5.367,0,0,0,0,
38,4474.87,4022.56,4387.69,4165.13,4083.08,3591.28,4446.15,4463.08,4769.74,4526.15,4583.08,4368.72,4293.33,3952.82,1655,1691,5.375,0,0,0,0,
39,4472.82,4016.41,4385.64,4171.28,4084.1,3591.28,4440,4457.44,4765.13,4523.08,4581.54,4367.69,4291.28,3952.31,1654,1692,5.383,0,0,0,0,
40,4462.56,4002.56,4379.49,4157.44,4076.92,3588.21,4427.69,4446.15,4752.82,4508.72,4569.23,4358.46,4278.46,3941.03,1653,1692,5.39,0,0,0,0,
41,4459.49,4006.67,4379.49,4152.31,4078.46,3585.13,4427.69,4443.08,4749.23,4506.15,4568.72,4353.85,4278.97,3938.97,1654,1692,5.398,0,0,0,0,
42,4462.56,4016.92,4381.54,4157.95,4086.15,3585.64,4432.82,4451.28,4753.85,4512.31,4574.87,4359.49,4286.67,3943.59,1654,1692,5.406,0,0,0,0,
43,4461.03,4012.82,4379.49,4160,4084.62,3586.67,4431.28,4456.92,4761.03,4518.97,4578.97,4365.13,4290.26,3944.1,1653,1692,5.414,0,0,0,0,
44,4457.95,4004.1,4376.92,4156.92,4081.03,3588.21,4433.33,4455.9,4763.59,4522.05,4577.95,4360.51,4291.79,3943.08,1654,1692,5.422,0,0,0,0,
45,4457.44,4014.36,4378.97,4155.9,4088.21,3590.26,4441.03,4456.41,4762.05,4520,4575.38,4355.38,4292.82,3942.05,1654,1693,5.43,0,0,0,0,
46,4458.46,4022.56,4381.54,4155.38,4090.26,3589.23,4442.05,4454.87,4763.08,4519.49,4580,4359.49,4292.31,3942.56,1655,1692,5.437,0,0,0,0,
47,4458.46,4011.79,4374.36,4154.87,4083.59,3586.67,4433.85,4447.69,4765.13,4523.59,4584.62,4360,4291.28,3943.59,1653,1692,5.445,0,0,0,0,
48,4454.36,4003.08,4366.15,4152.82,4078.97,3586.15,4429.74,4444.62,4763.59,4523.59,4577.95,4352.82,4290.77,3941.03,1655,1694,5.453,0,0,0,0,
49,4447.69,4006.15,4365.13,4151.28,4080.51,3586.67,4429.74,4447.18,4763.08,4520.51,4571.28,4347.18,4286.67,3932.31,1654,1692,5.461,0,0,0,0,
50,4442.56,4005.64,4361.03,4151.79,4082.05,3586.67,4431.28,4444.62,4763.59,4520,4568.72,4343.59,4281.54,3926.15,1654,1693,5.469,0,0,0,0,
51,4445.13,4006.15,4358.46,4153.85,4081.03,3587.18,4437.44,4446.67,4761.03,4518.46,4573.85,4343.59,4285.13,3932.31,1654,1691,5.476,0,0,0,0,
52,4456.92,4015.9,4367.69,4156.92,4085.64,3589.23,4443.59,4456.92,4769.23,4529.23,4584.1,4352.82,4293.85,3944.1,1654,1691,5.484,0,0,0,0,
53,4463.08,4021.03,4375.9,4158.46,4090.26,3591.28,4444.62,4461.54,4777.95,4542.56,4586.15,4361.03,4300.51,3946.67,1654,1689,5.492,0,0,0,0,
54,4461.54,4023.59,4372.31,4157.95,4088.72,3591.79,4445.13,4459.49,4774.36,4534.87,4585.13,4361.54,4303.59,3946.15,1654,1690,5.5,0,0,0,0,
55,4461.54,4020,4366.67,4154.87,4080.51,3589.74,4444.1,4456.92,4767.18,4524.1,4586.15,4358.46,4297.95,3945.64,1655,1690,5.508,0,0,0,0,
56,4453.85,4004.62,4360.51,4151.28,4070.77,3585.13,4441.54,4447.69,4756.92,4518.97,4576.41,4351.28,4282.56,3933.85,1653,1691,5.516,0,0,0,0,
57,4446.15,4004.62,4354.36,4151.28,4069.74,3584.1,4440,4443.08,4750.77,4512.82,4567.69,4348.21,4278.97,3928.72,1655,1691,5.523,0,0,0,0,
58,4454.87,4019.49,4358.97,4152.82,4079.49,3587.18,4443.59,4453.85,4758.97,4515.38,4575.9,4357.44,4287.69,3939.49,1654,1692,5.531,0,0,0,0,
59,4463.08,4018.46,4366.15,4152.82,4083.08,3590.77,4452.31,4463.59,4767.69,4518.97,4578.46,4360.51,4286.15,3939.49,1654,1693,5.539,0,0,0,0,
60,4455.9,4008.72,4361.54,4151.79,4076.41,3589.74,4453.85,4461.54,4760,4508.72,4570.26,4352.82,4279.49,3927.18,1653,1692,5.547,0,0,0,0,
61,4449.23,4007.69,4353.85,4151.28,4073.33,3587.18,4444.1,4451.28,4748.72,4502.05,4568.21,4348.72,4276.92,3925.64,1654,1693,5.555,0,0,0,0,
62,4447.18,4004.1,4353.85,4150.26,4072.82,3586.15,4440,4441.54,4753.33,4505.64,4566.67,4350.26,4276.92,3929.23,1654,1691,5.563,0,0,0,0,
63,4450.77,4004.1,4356.92,4152.82,4074.36,3588.21,4447.69,4449.23,4765.64,4512.31,4569.23,4351.79,4278.46,3927.18,1653,1692,5.571,0,0,0,0,
64,4456.92,4014.36,4357.95,4154.36,4078.46,3589.23,4450.77,4460,4772.82,4520.51,4582.05,4358.97,4282.56,3929.74,1654,1692,5.578,0,0,0,0,
65,4451.28,4012.82,4355.38,4148.21,4074.87,3587.69,4445.64,4449.74,4763.08,4514.36,4580.51,4359.49,4281.54,3930.77,1654,1692,5.586,0,0,0,0,
66,4443.59,4004.1,4353.33,4147.18,4072.82,3588.72,4444.62,4439.49,4750.26,4501.03,4567.18,4350.26,4278.46,3926.67,1653,1692,5.594,0,0,0,0,
67,4447.18,4004.62,4357.44,4148.21,4073.85,3586.15,4445.64,4444.62,4748.21,4503.08,4566.15,4348.72,4277.95,3926.67,1654,1693,5.602,0,0,0,0,
68,4448.21,4006.67,4358.46,4138.97,4068.72,3576.92,4444.1,4446.15,4750.26,4506.15,4570.77,4353.85,4276.92,3927.18,1654,1693,5.609,0,0,0,0,
69,4442.56,4004.62,4352.31,4134.36,4068.72,3573.85,4442.05,4444.1,4751.28,4504.1,4566.15,4351.28,4274.87,3925.13,1653,1693,5.617,0,0,0,0,
70,4441.54,4003.59,4350.77,4140.51,4076.92,3577.44,4442.56,4447.69,4749.23,4507.69,4562.56,4347.18,4272.82,3925.13,1654,1695,5.625,0,0,0,0,
71,4443.59,4004.62,4350.77,4141.03,4072.31,3576.92,4442.56,4448.72,4752.31,4508.72,4565.64,4349.23,4272.31,3924.1,1654,1694,5.633,0,0,0,0,
72,4443.08,4005.64,4346.67,4135.9,4066.67,3577.44,4442.56,4448.72,4762.05,4506.67,4568.21,4347.18,4273.85,3914.36,1654,1695,5.641,0,0,0,0,
73,4443.59,4006.15,4347.69,4141.54,4075.38,3584.1,4444.62,4455.38,4767.69,4509.74,4568.21,4340.51,4275.38,3909.74,1653,1695,5.649,0,0,0,0,
74,4444.1,4005.64,4350.77,4150.26,4078.97,3587.69,4450.77,4461.03,4767.69,4511.79,4567.69,4343.08,4277.95,3920,1653,1696,5.656,0,0,0,0,
75,4444.62,4008.72,4350.77,4147.69,4072.31,3587.69,4454.87,4457.95,4766.67,4509.23,4570.77,4349.74,4280.51,3927.69,1653,1695,5.664,0,0,0,0,
76,4446.67,4016.92,4352.82,4142.56,4078.46,3590.77,4455.9,4451.79,4767.69,4511.79,4573.33,4353.33,4281.03,3926.67,1653,1695,5.672,0,0,0,0,
77,4448.72,4019.49,4354.87,4142.56,4086.67,3590.77,4456.41,4450.77,4767.18,4519.49,4571.28,4356.41,4281.03,3928.72,1653,1694,5.68,0,0,0,0,
78,4446.15,4011.79,4349.74,4141.54,4077.95,3587.69,4455.9,4454.36,4766.15,4521.54,4569.74,4354.87,4281.03,3931.28,1653,1694,5.688,0,0,0,0,
79,4444.1,4006.67,4347.18,4138.97,4070.77,3586.15,4456.41,4456.92,4766.67,4518.46,4570.26,4350.77,4281.54,3926.15,1653,1693,5.695,0,0,0,0,
80,4446.67,4012.31,4353.85,4139.49,4077.44,3580.51,4456.92,4457.95,4770.26,4520.51,4572.31,4356.41,4282.05,3924.1,1653,1691,5.703,0,0,0,0,
81,4449.74,4018.97,4360.51,4141.54,4082.56,3574.87,4451.28,4460,4771.28,4522.05,4571.28,4360,4282.05,3928.72,1655,1692,5.711,0,0,0,0,
82,4446.15,4011.28,4356.92,4140,4074.36,3573.85,4443.08,4455.38,4766.15,4509.74,4568.72,4351.28,4281.03,3927.18,1655,1693,5.719,0,0,0,0,
83,4439.49,4002.05,4348.21,4135.9,4065.13,3580,4446.15,4449.23,4763.59,4504.1,4566.67,4346.15,4279.49,3922.05,1655,1693,5.727,0,0,0,0,
84,4440,4011.28,4349.74,4140,4071.28,3587.18,4456.92,4453.33,4768.21,4517.95,4568.21,4352.31,4279.49,3924.1,1655,1693,5.735,0,0,0,0,
85,4446.67,4020.51,4357.95,4151.79,4080,3588.72,4460.51,4459.49,4769.74,4523.08,4571.79,4358.46,4280,3927.18,1656,1692,5.742,0,0,0,0,
86,4445.64,4015.9,4355.9,4149.23,4079.49,3585.64,4458.46,4456.92,4768.21,4511.28,4571.28,4354.87,4281.03,3925.64,1655,1691,5.75,0,0,0,0,
87,4440,4012.31,4349.74,4136.92,4080,3587.18,4460,4457.44,4773.33,4513.85,4568.72,4349.74,4281.03,3924.62,1656,1691,5.758,0,0,0,0,
88,4441.03,4011.28,4349.23,4135.38,4085.13,3591.79,4463.59,4458.46,4777.95,4523.08,4569.23,4349.74,4279.49,3924.62,1655,1690,5.766,0,0,0,0,
89,4444.62,4006.67,4351.28,4137.44,4082.56,3590.77,4462.05,4451.28,4778.97,4522.05,4570.77,4352.82,4280.51,3925.64,1656,1691,5.774,0,0,0,0,
90,4444.62,4007.18,4353.33,4136.92,4074.87,3588.21,4458.97,4445.13,4782.05,4520,4567.69,4350.77,4282.05,3925.13,1655,1689,5.781,0,0,0,0,
91,4443.08,4009.23,4354.36,4139.49,4073.85,3586.15,4457.95,4443.59,4776.41,4514.87,4565.64,4349.23,4277.95,3917.95,1654,1692,5.789,0,0,0,0,
92,4440.51,4003.08,4350.77,4138.97,4076.92,3586.15,4458.46,4448.72,4768.21,4504.1,4566.67,4349.74,4274.36,3910.77,1655,1690,5.797,0,0,0,0,
93,4437.95,4002.56,4348.72,4136.92,4076.92,3587.69,4459.49,4455.9,4772.82,4504.1,4561.54,4345.64,4276.41,3911.79,1653,1691,5.805,0,0,0,0,
94,4440,4007.69,4351.79,4138.46,4075.38,3588.21,4458.46,4453.33,4774.87,4510.77,4560.51,4343.59,4278.46,3913.33,1654,1691,5.813,0,0,0,0,
95,4441.03,4006.15,4350.77,4137.44,4080,3588.72,4458.46,4448.72,4765.64,4506.15,4566.67,4347.69,4277.44,3911.79,1653,1692,5.821,0,0,0,0,
96,4441.03,4005.13,4348.72,4136.92,4087.18,3590.77,4462.56,4454.36,4770.26,4503.59,4568.72,4350.26,4278.46,3917.95,1654,1692,5.828,0,0,0,0,
97,4443.08,4006.67,4348.72,4140,4082.56,3591.79,4463.59,4460,4782.56,4514.36,4567.18,4350.77,4281.54,3926.67,1653,1693,5.836,0,0,0,0,
98,4445.13,4006.15,4353.33,4138.97,4074.87,3587.18,4458.97,4453.33,4782.05,4524.1,4569.23,4354.36,4283.59,3927.18,1654,1693,5.844,0,0,0,0,
99,4445.64,4006.67,4357.44,4137.95,4076.41,3586.67,4458.97,4448.21,4778.97,4522.05,4569.74,4357.44,4283.59,3924.62,1653,1692,5.852,0,0,0,0,
100,4446.67,4006.15,4354.36,4140.51,4078.46,3587.18,4461.54,4450.77,4779.49,4513.33,4566.15,4356.41,4281.54,3923.08,1655,1693,5.86,0,0,0,0,
101,4445.64,4006.15,4349.74,4139.49,4074.87,3578.97,4458.97,4457.95,4779.49,4508.21,4569.23,4357.44,4281.54,3926.15,1654,1691,5.868,0,0,0,0,
102,4444.62,4005.13,4350.77,4138.46,4071.79,3572.31,4457.95,4457.95,4781.03,4510.77,4567.69,4359.49,4278.97,3925.13,1654,1692,5.875,0,0,0,0,
103,4443.59,3998.97,4353.33,4139.49,4072.31,3577.44,4460,4451.28,4780.51,4510.26,4560.51,4355.9,4272.31,3920,1655,1690,5.883,0,0,0,0,
104,4433.85,3989.23,4347.69,4130.26,4064.62,3579.49,4459.49,4444.1,4769.74,4494.87,4551.79,4344.62,4260,3908.72,1653,1691,5.891,0,0,0,0,
105,4425.13,3987.18,4341.03,4124.1,4061.03,3582.05,4458.46,4435.9,4760,4488.21,4541.54,4333.85,4249.74,3896.41,1654,1691,5.899,0,0,0,0,
106,4431.79,3995.38,4346.15,4134.36,4072.82,3585.13,4460,4434.87,4765.64,4502.05,4543.08,4336.41,4254.36,3898.97,1653,1691,5.907,0,0,0,0,
107,4436.41,3998.97,4350.77,4137.44,4077.95,3577.95,4453.85,4436.92,4769.74,4507.18,4552.82,4341.54,4263.08,3909.74,1654,1692,5.914,0,0,0,0,
108,4434.36,3997.44,4349.74,4133.33,4073.33,3571.79,4450.77,4436.41,4763.59,4503.08,4553.85,4340,4264.1,3910.77,1653,1692,5.922,0,0,0,0,
109,4441.54,4003.59,4349.23,4139.49,4072.82,3574.87,4453.33,4434.36,4760.51,4508.21,4551.79,4340,4265.13,3909.23,1653,1693,5.93,0,0,0,0,
110,4443.59,4006.15,4347.18,4142.56,4073.85,3574.87,4449.74,4433.33,4763.08,4507.69,4553.85,4342.56,4267.69,3911.79,1653,1694,5.938,0,0,0,0,
111,4430.77,3994.36,4340.51,4133.85,4065.13,3572.31,4445.13,4431.28,4763.08,4492.82,4545.13,4337.44,4264.1,3907.69,1653,1694,5.946,0,0,0,0,
112,4426.67,3986.15,4338.46,4132.31,4059.49,3571.28,4447.18,4428.21,4762.05,4487.69,4538.46,4333.33,4261.54,3902.05,1653,1694,5.953,0,0,0,0,
113,4431.79,3993.85,4341.54,4137.44,4065.64,3571.79,4447.18,4428.21,4763.08,4493.85,4551.79,4337.95,4265.64,3909.74,1652,1696,5.961,0,0,0,0,
114,4429.74,3997.44,4341.03,4137.95,4070.26,3568.72,4445.13,4428.72,4758.46,4494.87,4555.38,4337.95,4266.67,3912.31,1652,1694,5.969,0,0,0,0,
115,4422.05,3987.18,4337.95,4129.74,4061.54,3559.49,4443.59,4425.64,4747.18,4488.21,4540,4327.69,4262.05,3901.03,1651,1694,5.977,0,0,0,0,
116,4422.56,3984.1,4341.03,4123.08,4053.85,3558.46,4444.1,4423.59,4748.72,4485.13,4534.87,4326.15,4260,3896.92,1652,1694,5.985,0,0,0,0,
117,4433.85,4001.54,4351.28,4136.41,4065.13,3570.26,4454.87,4434.36,4764.1,4498.46,4548.72,4338.46,4264.1,3909.23,1652,1694,5.993,0,0,0,0,
118,4445.13,4013.33,4355.38,4153.85,4076.92,3573.85,4462.56,4445.13,4769.23,4510.77,4556.41,4345.64,4267.69,3916.41,1652,1693,6,0,0,0,0,
119,4444.1,4005.64,4349.74,4146.67,4075.9,3569.74,4456.92,4443.08,4764.62,4508.72,4551.79,4341.54,4266.67,3910.26,1653,1692,6.008,0,0,0,0,
120,4438.46,4001.03,4349.74,4135.38,4073.33,3572.82,4456.92,4442.56,4768.21,4503.08,4550.77,4340,4265.64,3910.26,1653,1693,6.016,0,0,0,0,
121,4436.41,4003.59,4352.82,4138.46,4073.33,3573.33,4460,4444.1,4771.28,4497.44,4552.31,4340.51,4266.67,3914.87,1653,1693,6.024,0,0,0,0,
122,4432.31,4000.51,4345.64,4140,4068.72,3569.74,4454.36,4434.87,4765.64,4489.23,4544.1,4334.87,4264.1,3909.74,1653,1693,6.032,0,0,0,0,
123,4426.15,3999.49,4341.03,4137.44,4064.62,3572.31,4453.33,4427.18,4762.05,4489.74,4537.95,4331.79,4260,3905.64,1653,1692,6.04,0,0,0,0,
124,4428.21,4004.1,4348.72,4139.49,4070.26,3573.33,4457.95,4427.69,4764.1,4492.82,4542.05,4334.36,4262.05,3909.74,1653,1693,6.047,0,0,0,0,
125,4436.41,4004.1,4353.33,4142.56,4074.87,3571.28,4458.46,4431.79,4765.13,4494.36,4542.56,4333.85,4265.64,3908.21,1653,1691,6.055,0,0,0,0,
126,4438.46,4004.1,4350.77,4142.56,4076.41,3571.28,4457.95,4437.44,4765.64,4500,4539.49,4333.85,4265.64,3904.62,1652,1692,6.063,0,0,0,0,
127,4431.79,4004.1,4348.72,4138.97,4075.9,3572.82,4459.49,4437.95,4766.15,4507.69,4542.56,4336.41,4266.67,3909.23,1654,1693,6.071,0,0,0,0,
128,4426.67,3995.38,4344.62,4132.82,4069.74,3571.28,4458.46,4427.18,4765.64,4504.62,4543.59,4330.26,4266.15,3903.59,1653,1693,6.079,0,0,0,0,
0,4427.69,3986.67,4338.46,4130.77,4063.59,3572.31,4456.41,4425.13,4764.62,4493.85,4538.46,4321.54,4263.08,3894.36,1653,1693,6.086,0,0,0,0,
1,4428.72,3993.85,4342.56,4135.38,4069.74,3573.85,4456.92,4437.44,4767.18,4492.82,4544.62,4325.64,4267.69,3901.03,1653,1692,6.094,0,0,0,0,
2,4427.69,3997.95,4345.64,4138.46,4074.87,3570.77,4456.92,4438.46,4769.74,4497.95,4550.26,4328.21,4270.26,3903.08,1653,1692,6.102,0,0,0,0,
3,4427.18,3990.77,4345.13,4137.95,4066.15,3569.74,4456.92,4426.67,4764.1,4491.28,4542.56,4323.08,4264.1,3898.46,1653,1691,6.11,0,0,0,0,
4,4430.77,3994.87,4349.23,4140,4067.18,3572.31,4457.95,4427.69,4760.51,4486.67,4541.03,4327.18,4270.26,3906.67,1653,1692,6.118,0,0,0,0,
5,4432.31,4007.69,4352.31,4143.08,4077.44,3572.82,4459.49,4442.05,4766.15,4503.59,4552.82,4336.92,4283.08,3914.36,1654,1691,6.126,0,0,0,0,
6,4430.77,4005.13,4351.28,4141.54,4074.87,3573.85,4461.54,4442.05,4771.28,4512.31,4556.92,4336.92,4283.08,3910.77,1654,1691,6.133,0,0,0,0,
7,4430.77,3996.41,4352.31,4138.46,4067.69,3574.87,4460,4432.31,4765.13,4494.87,4549.23,4333.33,4274.87,3910.77,1655,1689,6.141,0,0,0,0,
8,4429.74,3995.38,4353.33,4137.95,4069.74,3573.85,4461.54,4434.87,4764.1,4492.31,4546.67,4334.87,4270.26,3913.85,1657,1689,6.149,0,0,0,0,
9,4431.79,3996.41,4352.31,4138.46,4068.21,3572.31,4471.28,4444.1,4775.9,4505.64,4552.31,4339.49,4271.79,3912.82,1656,1688,6.157,0,0,0,0,
10,4436.41,3997.95,4355.38,4138.46,4066.15,3571.28,4474.87,4445.13,4776.41,4501.03,4553.33,4342.56,4276.41,3913.33,1656,1689,6.167,0,0,0,0,
11,4439.49,4001.03,4360,4138.46,4068.72,3570.77,4466.15,4437.95,4763.08,4491.28,4545.13,4344.1,4274.87,3914.36,1656,1688,6.172,0,0,0,0,
12,4438.46,3998.97,4358.46,4138.97,4063.08,3570.26,4458.97,4430.77,4759.49,4489.74,4537.95,4341.54,4264.62,3914.36,1655,1690,6.18,0,0,0,0,
13,4436.41,3998.97,4351.28,4140,4058.97,3571.28,4460,4427.69,4764.1,4483.59,4538.46,4334.36,4260.51,3910.26,1655,1689,6.188,0,0,0,0,
14,4438.97,4004.62,4351.28,4143.08,4065.64,3571.79,4462.05,4430.77,4763.59,4483.59,4546.15,4334.36,4271.79,3912.31,1654,1690,6.196,0,0,0,0,
15,4439.49,4006.15,4358.46,4142.56,4064.62,3570.77,4460.51,4431.28,4760.51,4494.36,4548.72,4343.59,4277.95,3924.62,1653,1689,6.204,0,0,0,0,
16,4432.31,4002.56,4358.46,4136.92,4058.46,3570.77,4458.46,4427.69,4761.54,4494.36,4542.56,4342.05,4270.26,3927.18,1652,1691,6.212,0,0,0,0,
17,4427.69,4001.54,4355.38,4136.41,4063.59,3571.28,4457.44,4428.21,4763.08,4489.23,4543.08,4334.36,4269.23,3914.87,1654,1692,6.219,0,0,0,0,
18,4429.23,4002.56,4356.41,4139.49,4070.26,3570.26,4456.92,4427.18,4764.1,4490.26,4552.31,4336.92,4278.97,3910.77,1654,1691,6.227,0,0,0,0,
19,4431.28,4004.1,4357.95,4140,4068.21,3570.26,4457.95,4427.18,4764.1,4495.38,4555.38,4343.59,4280.51,3920.51,1654,1692,6.235,0,0,0,0,
20,4435.38,4006.15,4358.97,4140,4068.21,3572.82,4461.54,4434.87,4767.18,4504.62,4553.85,4346.15,4280,3928.21,1655,1691,6.243,0,0,0,0,
21,4437.95,4003.59,4358.97,4140,4067.69,3573.85,4460,4435.38,4768.21,4507.18,4554.36,4343.59,4282.56,3927.69,1655,1692,6.251,0,0,0,0,
22,4435.9,4004.1,4356.92,4141.03,4070.26,3573.85,4460.51,4431.28,4765.64,4501.54,4553.33,4341.03,4279.49,3925.64,1655,1692,6.258,0,0,0,0,
23,4441.54,4014.36,4362.56,4149.74,4082.56,3575.38,4473.33,4440,4766.67,4505.64,4553.85,4343.59,4282.05,3926.15,1655,1693,6.266,0,0,0,0,
24,4445.64,4016.41,4364.62,4158.46,4082.56,3575.9,4474.36,4442.56,4767.18,4511.28,4553.85,4343.59,4287.18,3926.67,1656,1692,6.274,0,0,0,0,
25,4442.05,4012.31,4358.97,4150.77,4068.21,3573.85,4458.46,4429.74,4762.56,4505.64,4551.79,4341.03,4281.03,3927.18,1654,1693,6.282,0,0,0,0,
26,4443.08,4012.31,4360,4136.92,4062.56,3570.77,4453.85,4424.62,4762.56,4503.08,4554.36,4344.62,4278.46,3928.21,1655,1692,6.29,0,0,0,0,
27,4445.64,4013.85,4368.21,4141.54,4070.77,3570.77,4457.95,4428.21,4763.08,4509.23,4558.97,4346.67,4285.13,3929.23,1654,1691,6.298,0,0,0,0,
28,4444.1,4016.92,4366.15,4151.79,4069.74,3571.79,4455.9,4426.67,4754.87,4505.64,4554.87,4341.54,4284.1,3927.69,1655,1691,6.305,0,0,0,0,
29,4441.03,4013.85,4359.49,4140.51,4058.97,3571.79,4455.38,4423.59,4746.67,4489.74,4546.67,4340,4275.38,3924.1,1654,1691,6.313,0,0,0,0,
30,4440.51,4002.05,4362.05,4130.77,4061.03,3572.31,4458.46,4427.69,4748.72,4485.13,4547.69,4341.54,4273.33,3921.54,1654,1691,6.321,0,0,0,0,
31,4441.54,4004.1,4367.69,4145.64,4069.74,3572.82,4460,4436.92,4755.38,4492.82,4553.33,4342.05,4276.92,3924.62,1655,1690,6.329,0,0,0,0,
32,4444.1,4017.44,4366.67,4157.44,4068.72,3572.31,4461.03,4440,4754.87,4498.46,4551.79,4341.03,4280,3926.15,1653,1692,6.337,0,0,0,0,
33,4444.62,4010.77,4365.64,4150.26,4066.67,3571.28,4460,4433.85,4748.72,4502.56,4549.74,4342.56,4279.49,3924.1,1655,1692,6.344,0,0,0,0,
34,4444.62,4005.64,4368.21,4147.18,4073.85,3570.77,4458.46,4430.77,4748.72,4504.1,4552.82,4349.23,4280.51,3926.67,1654,1692,6.352,0,0,0,0,
35,4448.72,4019.49,4368.72,4154.87,4077.44,3573.85,4460,4431.79,4752.31,4496.92,4557.44,4353.85,4283.59,3929.74,1655,1692,6.36,0,0,0,0,
36,4448.72,4017.95,4366.15,4154.87,4069.23,3573.33,4459.49,4427.18,4742.56,4491.79,4554.87,4346.67,4280.51,3926.67,1654,1691,6.368,0,0,0,0,
37,4442.56,4002.05,4361.54,4140.51,4058.97,3568.72,4455.38,4421.54,4730.77,4490.26,4543.59,4336.92,4273.33,3923.08,1655,1692,6.376,0,0,0,0,
38,4439.49,3999.49,4354.36,4137.44,4060.51,3569.74,4456.92,4423.08,4737.95,4488.21,4542.56,4336.41,4271.79,3923.08,1654,1692,6.384,0,0,0,0,
39,4439.49,4005.64,4354.87,4149.23,4071.79,3573.33,4460,4432.82,4748.21,4498.97,4552.82,4342.56,4277.44,3926.15,1655,1692,6.391,0,0,0,0,
40,4445.13,4009.74,4362.56,4156.41,4075.9,3572.82,4460,4443.59,4755.38,4518.46,4557.44,4349.74,4283.59,3934.87,1655,1690,6.399,0,0,0,0,
41,4455.9,4018.97,4370.77,4155.38,4074.87,3581.54,4466.67,4447.18,4764.62,4521.54,4564.1,4357.44,4291.79,3943.59,1654,1691,6.407,0,0,0,0,
42,4455.38,4022.05,4372.31,4154.36,4075.9,3590.26,4472.82,4445.64,4763.08,4510.77,4569.74,4357.44,4296.41,3942.05,1655,1689,6.415,0,0,0,0,
43,4443.08,4009.74,4365.13,4151.28,4071.28,3584.1,4465.13,4439.49,4751.79,4507.18,4561.03,4347.69,4286.67,3931.28,1654,1690,6.423,0,0,0,0,
44,4441.54,4001.03,4363.08,4150.77,4064.62,3578.46,4457.95,4430.77,4747.18,4504.62,4550.77,4341.54,4274.87,3924.62,1655,1689,6.43,0,0,0,0,
45,4446.67,4007.18,4368.21,4152.82,4070.77,3579.49,4461.54,4425.64,4745.64,4496.92,4551.79,4343.59,4277.44,3926.67,1655,1690,6.438,0,0,0,0,
46,4443.59,4011.79,4368.21,4143.59,4074.87,3575.38,4461.54,4428.21,4742.56,4492.82,4551.79,4343.08,4281.54,3928.21,1656,1690,6.446,0,0,0,0,
47,4440,4004.62,4363.59,4133.33,4061.54,3572.82,4458.97,4429.23,4738.97,4491.28,4549.74,4340.51,4274.87,3924.62,1655,1689,6.454,0,0,0,0,
48,4443.08,4001.03,4365.13,4140.51,4055.38,3575.38,4459.49,4425.64,4736.92,4492.31,4551.79,4341.54,4272.31,3923.08,1655,1690,6.462,0,0,0,0,
49,4445.13,4006.67,4369.74,4156.92,4070.26,3575.9,4460,4431.28,4741.54,4502.05,4552.82,4343.08,4278.46,3927.18,1654,1690,6.47,0,0,0,0,
50,4445.13,4013.33,4373.33,4157.95,4078.46,3575.38,4467.18,4443.59,4746.67,4510.77,4554.36,4348.72,4282.05,3929.74,1655,1690,6.477,0,0,0,0,
51,4446.15,4014.87,4371.79,4148.21,4065.13,3575.9,4469.23,4438.46,4740,4505.64,4553.33,4351.79,4281.54,3928.72,1654,1690,6.485,0,0,0,0,
52,4445.64,4012.31,4367.69,4150.77,4059.49,3574.87,4461.54,4424.1,4735.38,4499.49,4554.36,4346.15,4282.05,3927.18,1654,1692,6.493,0,0,0,0,
53,4442.56,4007.18,4362.05,4154.87,4068.21,3575.9,4461.54,4430.77,4744.1,4502.56,4552.82,4341.03,4281.03,3926.67,1654,1689,6.501,0,0,0,0,
54,4440,4002.56,4358.46,4143.59,4064.62,3576.41,4466.15,4445.13,4749.23,4507.69,4544.62,4341.54,4274.87,3923.08,1653,1690,6.509,0,0,0,0,
55,4441.54,4002.56,4362.56,4135.38,4056.92,3574.36,4461.54,4445.13,4748.72,4508.21,4547.18,4343.08,4274.87,3921.54,1654,1690,6.517,0,0,0,0,
56,4444.1,4004.62,4368.21,4144.62,4062.05,3573.33,4459.49,4442.56,4746.67,4501.03,4551.28,4342.56,4278.46,3924.62,1654,1690,6.524,0,0,0,0,
57,4443.59,4004.1,4366.67,4149.74,4065.64,3575.38,4464.1,4446.15,4743.59,4491.28,4542.05,4339.49,4273.33,3925.64,1654,1691,6.532,0,0,0,0,
58,4443.08,4001.54,4365.64,4141.03,4058.97,3575.9,4463.59,4443.08,4740,4489.74,4535.38,4338.46,4265.64,3924.62,1655,1691,6.54,0,0,0,0,
59,4443.59,4002.05,4366.67,4136.41,4054.87,3574.36,4461.03,4432.82,4735.9,4492.31,4540,4341.03,4263.08,3924.1,1655,1692,6.548,0,0,0,0,
60,4443.59,4008.72,4364.1,4144.1,4062.05,3574.87,4460,4428.21,4732.31,4490.26,4541.03,4338.97,4265.64,3921.54,1655,1691,6.556,0,0,0,0,
61,4446.15,4014.36,4366.67,4153.33,4069.23,3576.92,4461.54,4428.21,4732.82,4488.72,4538.97,4338.97,4270.77,3925.13,1656,1692,6.563,0,0,0,0,
62,4449.23,4013.85,4369.74,4153.33,4065.13,3574.36,4462.05,4427.69,4734.87,4487.69,4540.51,4342.05,4270.26,3927.69,1655,1691,6.571,0,0,0,0,
63,4446.67,4011.79,4366.15,4150.26,4060.51,3570.26,4458.97,4424.62,4730.77,4487.18,4538.97,4340,4266.15,3918.97,1655,1691,6.579,0,0,0,0,
64,4443.08,4012.82,4364.62,4151.79,4066.15,3572.82,4457.95,4426.67,4735.38,4497.44,4540,4337.44,4270.26,3915.38,1654,1690,6.587,0,0,0,0,
65,4444.1,4016.41,4365.64,4153.33,4068.72,3575.9,4461.03,4437.44,4748.72,4506.15,4540.51,4338.97,4271.28,3915.9,1654,1690,6.595,0,0,0,0,
66,4446.67,4016.92,4365.64,4151.28,4065.64,3575.9,4463.08,4445.13,4751.28,4506.67,4542.05,4339.49,4267.69,3914.87,1654,1690,6.603,0,0,0,0,
67,4445.13,4015.38,4365.64,4153.33,4068.21,3574.87,4461.03,4444.1,4748.72,4508.72,4550.77,4339.49,4275.38,3920.51,1654,1691,6.61,0,0,0,0,
68,4445.13,4017.44,4367.18,4154.36,4068.21,3573.33,4460,4444.1,4751.28,4511.28,4555.9,4344.62,4283.59,3927.18,1654,1691,6.618,0,0,0,0,
69,4452.31,4019.49,4369.23,4153.33,4069.23,3578.97,4466.67,4445.13,4746.15,4511.28,4552.31,4350.26,4280,3925.13,1654,1692,6.626,0,0,0,0,
70,4456.92,4016.41,4374.87,4154.87,4073.33,3587.69,4471.28,4437.95,4733.33,4504.62,4550.77,4351.28,4276.41,3925.64,1654,1691,6.634,0,0,0,0,
71,4451.28,4014.87,4374.87,4155.38,4070.26,3587.18,4466.15,4430.26,4730.77,4491.28,4552.31,4350.77,4277.44,3928.72,1654,1693,6.642,0,0,0,0,
72,4445.13,4017.44,4369.74,4152.31,4067.18,3584.62,4462.56,4430.77,4732.82,4492.82,4551.79,4351.28,4278.46,3925.13,1656,1691,6.649,0,0,0,0,
73,4445.64,4018.97,4369.23,4149.23,4073.33,3586.15,4465.64,4432.31,4735.38,4508.21,4552.82,4350.26,4281.03,3927.18,1654,1692,6.657,0,0,0,0,
74,4447.69,4018.97,4371.28,4152.31,4074.36,3580.51,4462.56,4434.87,4742.56,4505.64,4553.33,4348.21,4282.05,3930.26,1657,1692,6.665,0,0,0,0,
75,4449.23,4021.54,4369.74,4154.36,4071.79,3573.33,4460.51,4440.51,4748.72,4501.54,4552.82,4350.26,4282.05,3928.21,1656,1691,6.673,0,0,0,0,
76,4448.72,4021.03,4366.67,4146.67,4074.87,3578.97,4465.13,4445.13,4750.77,4515.9,4555.9,4350.26,4282.56,3925.64,1656,1691,6.681,0,0,0,0,
77,4443.08,4014.36,4364.1,4140.51,4069.74,3586.67,4465.13,4444.62,4749.74,4516.41,4552.31,4343.59,4278.97,3924.62,1656,1690,6.689,0,0,0,0,
78,4441.03,4012.31,4364.62,4148.72,4064.62,3588.72,4464.1,4443.59,4745.13,4502.05,4545.13,4339.49,4276.92,3924.1,1656,1691,6.696,0,0,0,0,
79,4449.74,4017.44,4370.77,4159.49,4072.82,3584.1,4464.62,4442.56,4741.54,4502.56,4550.26,4346.15,4280,3926.15,1655,1690,6.704,0,0,0,0,
80,4459.49,4019.49,4374.36,4155.38,4077.95,3574.87,4461.03,4442.05,4741.03,4510.77,4556.41,4351.28,4281.03,3928.21,1655,1690,6.712,0,0,0,0,
81,4458.97,4018.46,4373.85,4146.15,4073.85,3577.95,4460,4442.05,4744.62,4509.23,4552.82,4346.15,4279.49,3926.67,1655,1689,6.72,0,0,0,0,
82,4450.77,4017.95,4372.31,4147.69,4075.38,3588.72,4463.08,4442.56,4748.21,4506.67,4550.77,4341.54,4279.49,3926.15,1654,1691,6.728,0,0,0,0,
83,4446.67,4013.85,4369.74,4152.82,4076.92,3586.15,4462.05,4440,4741.03,4509.23,4548.72,4343.08,4278.46,3926.15,1656,1690,6.735,0,0,0,0,
84,4448.21,4013.33,4366.15,4150.26,4069.23,3576.41,4459.49,4434.36,4730.77,4502.05,4541.03,4341.54,4275.38,3924.1,1654,1691,6.743,0,0,0,0,
85,4448.21,4017.95,4367.18,4146.67,4069.74,3575.38,4460,4431.28,4732.31,4493.85,4538.97,4336.41,4270.77,3923.08,1656,1692,6.751,0,0,0,0,
86,4446.15,4017.44,4367.18,4150.77,4076.41,3576.41,4459.49,4432.31,4736.92,4502.05,4538.46,4335.38,4268.21,3922.05,1654,1691,6.759,0,0,0,0,
87,4445.13,4015.9,4364.62,4155.38,4073.85,3576.41,4458.97,4435.38,4736.41,4508.72,4538.46,4339.49,4269.23,3922.05,1655,1693,6.767,0,0,0,0,
88,4449.74,4017.44,4369.74,4152.31,4073.33,3585.64,4458.97,4440.51,4737.95,4494.87,4551.79,4343.59,4273.85,3924.62,1655,1691,6.775,0,0,0,0,
89,4451.79,4017.95,4374.87,4150.77,4076.92,3587.18,4460,4443.59,4740.51,4490.26,4556.92,4342.56,4278.97,3926.67,1654,1692,6.782,0,0,0,0,
90,4447.18,4014.36,4368.72,4150.77,4069.23,3578.46,4461.54,4437.44,4738.97,4504.62,4543.59,4339.49,4278.97,3925.13,1654,1692,6.79,0,0,0,0,
91,4444.62,4012.31,4366.67,4150.77,4063.59,3578.46,4462.56,4435.38,4740.51,4509.23,4540,4338.97,4276.41,3924.62,1655,1692,6.798,0,0,0,0,
92,4446.15,4016.92,4370.26,4152.31,4071.79,3581.54,4461.54,4441.03,4744.62,4504.1,4552.82,4341.54,4276.41,3925.13,1655,1691,6.806,0,0,0,0,
93,4449.23,4020,4371.79,4152.31,4073.85,3576.92,4463.59,4444.1,4745.64,4505.13,4554.87,4344.1,4281.03,3925.64,1655,1692,6.814,0,0,0,0,
94,4454.87,4017.44,4372.31,4150.77,4068.21,3574.36,4466.67,4440,4739.49,4507.69,4543.59,4343.59,4278.97,3926.15,1656,1692,6.821,0,0,0,0,
95,4457.95,4016.92,4374.87,4151.28,4068.21,3576.41,4459.49,4431.28,4731.79,4502.56,4538.97,4341.54,4268.21,3925.64,1654,1692,6.829,0,0,0,0,
96,4455.9,4017.95,4372.82,4156.41,4073.33,3573.33,4449.74,4427.69,4731.79,4492.31,4541.03,4344.1,4263.59,3925.64,1656,1692,6.837,0,0,0,0,
97,4455.38,4013.33,4371.28,4154.87,4072.82,3573.33,4453.33,4430.26,4734.87,4487.69,4540,4348.21,4267.69,3925.13,1655,1691,6.845,0,0,0,0,
98,4455.9,4007.18,4372.31,4142.05,4065.64,3576.92,4458.46,4433.85,4738.97,4497.44,4540,4345.64,4267.18,3924.1,1654,1692,6.853,0,0,0,0,
99,4448.72,4003.08,4367.18,4133.85,4058.46,3576.41,4459.49,4437.95,4744.62,4504.1,4540,4339.49,4265.64,3923.59,1654,1690,6.861,0,0,0,0,
