eeg data - format version 0.2: COUNTER,AF3,F7,F3, FC5, T7, P7, O1, O2,P8, T8, FC6, F4,F8, AF4,GYROX, GYROY, TIMESTAMP, FUNC_ID, FUNC_VALUE, MARKER, SYNC_SIGNAL, Cognitiv Action, Cognitiv Power,
14,4452.31,3974.87,4335.38,4148.21,4073.85,3546.67,4397.95,4455.38,4726.67,4491.28,4536.92,4357.95,4270.77,3970.26,1656,1690,0.083,0,0,0,0,1,0,
15,4442.56,3965.64,4329.23,4141.54,4066.67,3546.15,4395.9,4450.26,4724.1,4484.1,4530.77,4351.28,4263.59,3957.95,1655,1691,0.092,0,0,0,0,1,0,
16,4447.18,3971.79,4328.72,4140.51,4076.41,3556.41,4402.05,4456.92,4733.33,4489.74,4535.38,4354.36,4266.67,3958.46,1656,1691,0.145,0,0,0,0,1,0,
17,4450.26,3975.9,4326.67,4144.62,4083.59,3558.46,4404.62,4460,4737.44,4494.36,4534.36,4350.77,4267.69,3962.05,1655,1691,0.146,0,0,0,0,1,0,
18,4441.54,3971.28,4322.56,4140,4073.33,3551.79,4398.97,4455.38,4732.82,4487.69,4523.08,4340,4263.08,3955.9,1656,1692,0.146,0,0,0,0,1,0,
19,4440.51,3970.26,4323.08,4136.92,4072.82,3552.31,4396.41,4456.41,4733.33,4489.74,4524.1,4343.08,4264.1,3954.36,1655,1691,0.146,0,0,0,0,1,0,
20,4445.64,3974.87,4327.18,4140.51,4076.41,3556.41,4398.97,4459.49,4733.85,4494.87,4528.21,4350.26,4265.64,3957.95,1653,1693,0.146,0,0,0,0,1,0,
21,4443.08,3974.36,4325.64,4140,4067.69,3554.87,4398.97,4456.92,4731.28,4481.54,4522.56,4345.13,4263.08,3956.92,1654,1692,0.146,0,0,0,0,1,0,
22,4440.51,3968.21,4325.13,4136.41,4065.64,3552.31,4400,4456.41,4731.79,4474.36,4520.51,4342.05,4267.69,3955.9,1654,1693,0.146,0,0,0,0,1,0,
23,4445.64,3971.28,4327.18,4136.41,4074.36,3553.85,4407.18,4459.49,4733.85,4489.74,4525.64,4349.23,4278.46,3958.97,1653,1692,0.236,0,0,0,0,1,0,
24,4448.72,3972.82,4327.69,4136.92,4071.28,3556.92,4410.77,4461.03,4734.36,4495.38,4528.21,4351.28,4283.08,3960.51,1653,1691,0.237,0,0,0,0,1,0,
25,4444.1,3962.56,4328.21,4139.49,4059.49,3555.38,4407.18,4459.49,4732.82,4479.49,4523.59,4348.21,4277.44,3959.49,1654,1691,0.237,0,0,0,0,1,0,
26,4447.18,3961.54,4332.31,4143.08,4059.49,3553.33,4403.59,4456.41,4731.28,4475.9,4521.03,4348.72,4277.95,3957.95,1654,1691,0.237,0,0,0,0,1,0,
27,4457.44,3974.87,4336.92,4142.56,4069.74,3556.41,4403.08,4457.44,4733.85,4490.77,4532.31,4353.33,4289.23,3962.05,1654,1692,0.237,0,0,0,0,1,0,
28,4459.49,3979.49,4335.9,4142.05,4068.21,3558.97,4404.62,4460.51,4734.87,4496.41,4539.49,4357.44,4292.31,3967.18,1655,1693,0.237,0,0,0,0,1,0,
29,4453.33,3971.79,4329.74,4144.62,4061.03,3555.38,4404.1,4453.33,4730.77,4488.21,4530.77,4351.28,4284.62,3962.05,1656,1692,0.237,0,0,0,0,1,0,
30,4446.67,3970.77,4324.62,4138.46,4064.1,3554.87,4402.05,4448.21,4730.26,4480.51,4523.08,4341.03,4278.97,3954.36,1656,1693,0.237,0,0,0,0,1,0,
31,4442.05,3972.31,4321.54,4137.95,4061.54,3556.41,4405.13,4453.85,4732.82,4480,4524.1,4341.54,4281.54,3953.85,1656,1692,0.237,0,0,0,0,1,0,
32,4449.23,3972.31,4323.59,4150.77,4055.9,3557.44,4412.82,4460,4736.92,4486.15,4531.28,4347.69,4288.21,3961.03,1656,1693,0.237,0,0,0,0,1,0,
33,4460.51,3974.87,4327.69,4151.28,4067.18,3558.46,4412.82,4460.51,4736.92,4491.28,4539.49,4350.77,4293.85,3966.67,1657,1692,0.237,0,0,0,0,1,0,
34,4453.85,3973.33,4327.69,4138.97,4072.82,3556.41,4404.62,4454.36,4729.74,4489.23,4534.36,4349.74,4289.74,3963.08,1656,1692,0.241,0,0,0,0,1,0,
35,4448.21,3971.79,4325.13,4138.46,4056.41,3553.85,4402.56,4449.23,4724.1,4488.72,4528.21,4349.23,4281.03,3958.46,1657,1691,0.248,0,0,0,0,1,0,
36,4455.38,3972.31,4327.18,4144.1,4048.21,3553.85,4404.62,4453.85,4730.77,4490.26,4534.87,4352.82,4281.03,3961.54,1655,1691,0.256,0,0,0,0,1,0,
37,4450.77,3964.1,4326.15,4139.49,4053.33,3546.15,4399.49,4458.46,4736.41,4489.23,4530.26,4349.74,4281.54,3962.05,1656,1692,0.263,0,0,0,0,1,0,
38,4440.51,3958.46,4319.49,4135.38,4049.74,3541.03,4393.85,4454.87,4732.31,4487.69,4522.05,4342.05,4277.44,3957.44,1656,1690,0.274,0,0,0,0,1,0,
39,4449.23,3964.62,4320,4138.97,4048.21,3549.23,4400.51,4455.9,4732.82,4489.23,4531.28,4345.64,4278.46,3956.41,1654,1690,0.283,0,0,0,0,1,0,
40,4458.46,3962.56,4324.1,4142.56,4054.36,3549.74,4403.59,4460,4733.85,4489.74,4533.33,4351.28,4278.46,3957.95,1656,1689,0.287,0,0,0,0,1,0,
41,4457.95,3962.56,4324.1,4141.54,4053.33,3543.59,4398.97,4457.44,4730.26,4485.64,4524.1,4349.74,4280,3962.56,1654,1690,0.295,0,0,0,0,1,0,
42,4455.9,3970.77,4318.97,4139.49,4045.64,3545.64,4396.92,4451.79,4724.1,4476.41,4524.62,4344.62,4278.97,3964.62,1655,1689,0.302,0,0,0,0,1,0,
43,4447.18,3964.62,4312.31,4142.05,4046.15,3545.64,4393.33,4443.08,4716.41,4469.23,4522.56,4338.46,4267.69,3957.95,1655,1689,0.311,0,0,0,0,1,0,
44,4447.18,3960,4312.82,4143.59,4051.79,3541.03,4391.28,4440,4717.44,4469.23,4516.92,4337.95,4263.59,3955.38,1656,1688,0.319,0,0,0,0,1,0,
45,4458.46,3975.38,4319.49,4140.51,4047.18,3544.1,4395.38,4447.18,4727.69,4475.9,4527.18,4346.67,4273.33,3958.97,1655,1689,0.326,0,0,0,0,1,0,
46,4462.56,3980.51,4320.51,4138.97,4043.59,3551.28,4401.03,4454.87,4734.87,4486.15,4538.46,4351.79,4282.56,3961.03,1656,1689,0.334,0,0,0,0,1,0,
47,4460,3974.36,4317.95,4140.51,4053.33,3555.38,4402.05,4458.46,4736.41,4494.87,4538.46,4350.77,4285.64,3969.23,1655,1689,0.341,0,0,0,0,1,0,
48,4461.54,3975.38,4321.03,4141.03,4062.05,3554.87,4401.54,4460,4737.95,4493.85,4538.97,4351.28,4285.13,3974.36,1656,1691,0.349,0,0,0,0,1,0,
49,4458.97,3975.9,4320.51,4140.51,4061.03,3547.69,4401.54,4458.97,4735.38,4490.26,4537.95,4352.31,4282.56,3964.62,1657,1690,0.357,0,0,0,0,1,0,
50,4457.44,3972.31,4315.38,4140.51,4054.87,3544.1,4403.08,4460,4732.82,4489.23,4528.72,4351.28,4277.44,3957.44,1655,1691,0.373,0,0,0,0,1,0,
51,4455.38,3966.15,4311.79,4137.95,4044.62,3546.15,4401.54,4457.44,4734.36,4482.56,4522.56,4345.64,4268.21,3957.95,1656,1692,0.374,0,0,0,0,1,0,
52,4445.13,3956.92,4311.28,4136.41,4044.1,3545.64,4396.92,4448.72,4730.26,4473.33,4523.59,4340.51,4261.54,3956.41,1655,1692,0.381,0,0,0,0,1,0,
53,4441.54,3955.38,4308.72,4137.95,4052.82,3542.05,4396.92,4444.62,4723.59,4473.33,4523.08,4339.49,4263.08,3956.92,1655,1692,0.389,0,0,0,0,1,0,
54,4443.59,3956.41,4304.1,4136.92,4050.26,3540,4395.9,4443.08,4718.97,4473.85,4517.95,4337.44,4261.54,3955.9,1655,1693,0.397,0,0,0,0,1,0,
55,4444.62,3955.38,4308.21,4135.38,4043.08,3542.56,4394.87,4444.1,4723.08,4478.97,4523.08,4339.49,4262.05,3955.38,1655,1693,0.404,0,0,0,0,1,0,
56,4449.74,3961.03,4314.36,4136.41,4044.1,3545.13,4396.41,4448.72,4732.31,4487.69,4535.38,4348.21,4274.36,3962.05,1653,1693,0.412,0,0,0,0,1,0,
57,4458.46,3973.85,4312.82,4137.95,4045.13,3542.56,4391.79,4451.28,4735.38,4484.62,4538.97,4351.79,4280.51,3969.23,1655,1694,0.42,0,0,0,0,1,0,
58,4460.51,3974.87,4313.33,4135.9,4048.72,3538.46,4386.67,4448.21,4732.31,4480,4534.87,4350.26,4276.92,3969.74,1654,1692,0.427,0,0,0,0,1,0,
59,4455.9,3961.54,4318.97,4135.9,4051.28,3538.97,4389.74,4445.64,4731.28,4489.23,4534.87,4351.28,4275.9,3970.26,1654,1694,0.441,0,0,0,0,1,0,
60,4454.87,3958.97,4320.51,4138.46,4043.08,3540.51,4393.85,4449.74,4733.33,4491.79,4537.44,4351.28,4277.95,3970.77,1655,1692,0.443,0,0,0,0,1,0,
61,4459.49,3970.77,4320.51,4138.46,4042.05,3539.49,4395.9,4455.38,4733.85,4483.08,4537.95,4354.36,4280,3971.79,1654,1693,0.451,0,0,0,0,1,0,
62,4463.08,3976.92,4326.15,4142.56,4054.36,3541.54,4397.95,4458.97,4736.41,4493.33,4540.51,4360.51,4282.05,3975.38,1655,1692,0.459,0,0,0,0,1,0,
63,4462.56,3975.9,4328.72,4149.23,4055.38,3546.15,4399.49,4459.49,4737.44,4505.13,4542.56,4358.97,4283.59,3976.41,1654,1692,0.467,0,0,0,0,1,0,
64,4460,3968.21,4324.1,4149.23,4044.62,3545.13,4401.54,4460.51,4736.41,4495.38,4540,4353.33,4281.54,3973.85,1656,1693,0.474,0,0,0,0,1,0,
65,4457.95,3956.92,4318.97,4141.54,4041.03,3541.54,4402.56,4459.49,4736.41,4490.77,4538.97,4354.36,4278.97,3972.82,1655,1692,0.482,0,0,0,0,1,0,
66,4455.9,3956.41,4320,4135.9,4045.64,3542.56,4398.97,4458.46,4743.59,4503.08,4540,4357.44,4282.56,3971.79,1655,1693,0.49,0,0,0,0,1,0,
67,4457.95,3966.15,4324.62,4136.41,4050.26,3546.67,4398.46,4463.08,4748.21,4508.21,4541.03,4360,4288.72,3974.36,1655,1693,0.498,0,0,0,0,1,0,
68,4459.49,3964.1,4321.03,4136.41,4049.23,3545.64,4400,4461.03,4739.49,4495.9,4540.51,4356.92,4286.67,3976.41,1656,1693,0.506,0,0,0,0,1,0,
69,4452.82,3956.92,4312.31,4131.28,4042.05,3540,4393.85,4450.77,4727.18,4482.05,4533.85,4346.15,4272.82,3967.69,1655,1692,0.514,0,0,0,0,1,0,
70,4442.56,3957.95,4308.21,4129.74,4033.85,3537.44,4386.67,4442.05,4720,4473.85,4522.56,4341.54,4261.54,3955.38,1654,1694,0.521,0,0,0,0,1,0,
71,4441.54,3960,4310.26,4132.82,4041.03,3539.49,4389.23,4441.54,4722.05,4473.85,4523.08,4348.21,4266.67,3955.9,1656,1693,0.529,0,0,0,0,1,0,
72,4452.31,3963.08,4315.9,4138.46,4056.92,3541.03,4392.31,4449.23,4732.31,4481.03,4535.38,4350.77,4276.92,3966.67,1653,1693,0.537,0,0,0,0,1,0,
73,4460,3969.74,4321.54,4147.18,4056.92,3539.49,4393.33,4458.46,4737.95,4486.15,4538.46,4349.74,4278.46,3974.36,1654,1693,0.545,0,0,0,0,1,0,
74,4458.97,3974.87,4320.51,4149.23,4046.67,3538.46,4393.33,4459.49,4734.36,4488.72,4533.85,4353.33,4276.41,3975.38,1653,1692,0.553,0,0,0,0,1,0,
75,4458.46,3973.85,4319.49,4136.92,4047.18,3540,4391.79,4451.79,4733.33,4491.79,4535.9,4355.38,4278.46,3972.82,1654,1693,0.56,0,0,0,0,1,0,
76,4460.51,3976.41,4324.62,4135.38,4057.44,3542.56,4391.79,4449.23,4737.44,4493.33,4537.95,4355.9,4278.97,3974.36,1653,1693,0.568,0,0,0,0,1,0,
77,4462.05,3983.59,4327.18,4148.72,4062.05,3544.1,4396.41,4450.77,4735.38,4489.74,4536.41,4356.92,4277.95,3977.44,1653,1693,0.576,0,0,0,0,1,0,
78,4462.56,3982.56,4324.1,4149.74,4061.54,3548.21,4397.95,4450.26,4730.77,4492.82,4537.44,4357.95,4280,3976.92,1653,1693,0.584,0,0,0,0,1,0,
79,4462.56,3975.38,4323.59,4139.49,4060,3549.74,4395.38,4451.28,4730.77,4498.46,4538.97,4357.95,4281.54,3975.38,1654,1693,0.592,0,0,0,0,1,0,
80,4461.54,3973.85,4325.13,4136.92,4063.08,3545.64,4396.41,4458.46,4735.9,4493.85,4537.95,4357.44,4280.51,3973.85,1654,1692,0.6,0,0,0,0,1,0,
81,4463.08,3977.44,4326.67,4148.21,4062.56,3544.1,4400,4462.05,4738.46,4490.77,4536.41,4357.95,4280.51,3974.87,1655,1692,0.607,0,0,0,0,1,0,
82,4462.05,3972.82,4324.62,4153.33,4053.85,3543.59,4393.85,4452.31,4733.85,4486.15,4535.38,4356.92,4280.51,3973.33,1655,1691,0.616,0,0,0,0,1,0,
83,4457.95,3971.28,4321.03,4140,4053.85,3540,4387.18,4444.1,4731.79,4476.41,4533.33,4353.85,4278.46,3972.31,1655,1692,0.623,0,0,0,0,1,0,
84,4459.49,3980,4321.03,4138.97,4061.54,3541.54,4392.31,4444.62,4735.9,4484.1,4534.87,4351.28,4279.49,3976.92,1655,1692,0.631,0,0,0,0,1,0,
85,4462.56,3981.54,4322.56,4150.26,4062.05,3544.62,4396.92,4446.67,4735.38,4497.44,4536.92,4352.31,4282.56,3978.46,1656,1692,0.639,0,0,0,0,1,0,
86,4459.49,3974.36,4319.49,4145.64,4057.95,3540,4388.21,4442.05,4725.13,4483.08,4528.72,4351.28,4276.92,3974.36,1656,1691,0.647,0,0,0,0,1,0,
87,4456.41,3973.33,4316.92,4137.44,4059.49,3536.92,4384.1,4440.51,4721.54,4468.21,4520.51,4347.69,4271.28,3972.31,1656,1692,0.655,0,0,0,0,1,0,
88,4460,3975.38,4322.05,4148.72,4062.05,3542.56,4392.31,4444.1,4731.28,4483.08,4529.23,4351.28,4274.87,3975.9,1656,1691,0.662,0,0,0,0,1,0,
89,4465.13,3978.46,4328.21,4153.85,4059.49,3545.64,4397.44,4447.69,4735.9,4494.87,4539.49,4359.49,4280.51,3983.08,1656,1691,0.67,0,0,0,0,1,0,
90,4465.13,3981.54,4329.23,4148.72,4065.64,3546.67,4396.92,4454.87,4733.33,4489.74,4537.44,4361.54,4279.49,3986.15,1657,1690,0.678,0,0,0,0,1,0,
91,4462.56,3977.95,4328.21,4152.82,4075.9,3551.79,4397.95,4459.49,4734.36,4486.67,4534.36,4356.41,4277.95,3981.54,1656,1691,0.686,0,0,0,0,1,0,
92,4462.05,3974.36,4324.1,4150.77,4069.74,3553.33,4400,4457.95,4735.9,4489.74,4536.41,4354.36,4279.49,3980,1656,1691,0.693,0,0,0,0,1,0,
93,4460.51,3974.87,4320,4140,4058.46,3546.15,4398.46,4456.92,4734.36,4492.82,4536.92,4356.41,4281.03,3978.46,1655,1691,0.701,0,0,0,0,1,0,
94,4456.92,3972.82,4324.62,4139.49,4059.49,3541.54,4396.92,4459.49,4735.38,4490.77,4537.44,4356.92,4277.95,3970.26,1656,1691,0.709,0,0,0,0,1,0,
95,4458.97,3973.33,4329.23,4142.56,4057.44,3543.08,4396.41,4456.41,4734.36,4480,4534.36,4356.92,4270.26,3972.82,1655,1691,0.717,0,0,0,0,1,0,
96,4460,3972.31,4322.05,4139.49,4050.26,3541.03,4395.38,4447.18,4729.74,4471.79,4524.1,4352.31,4264.1,3975.38,1655,1692,0.725,0,0,0,0,1,0,
97,4452.31,3966.15,4313.85,4136.92,4057.95,3538.46,4394.36,4442.05,4729.23,4475.38,4520,4343.59,4263.08,3961.03,1654,1692,0.733,0,0,0,0,1,0,
98,4451.28,3970.26,4318.46,4137.95,4064.62,3541.03,4395.38,4445.13,4732.82,4476.92,4524.1,4345.13,4264.62,3960,1654,1692,0.741,0,0,0,0,1,0,
99,4459.49,3977.44,4326.15,4142.56,4064.1,3544.62,4396.41,4448.72,4735.9,4475.9,4525.64,4352.31,4266.67,3975.38,1654,1692,0.748,0,0,0,0,1,0,
100,4460.51,3976.41,4326.67,4154.87,4066.15,3543.08,4395.38,4446.67,4732.82,4477.44,4525.64,4351.28,4266.15,3975.9,1653,1693,0.756,0,0,0,0,1,0,
101,4456.41,3976.41,4323.59,4156.41,4064.1,3542.05,4395.9,4440.51,4726.15,4473.33,4524.1,4348.72,4265.13,3970.26,1654,1692,0.764,0,0,0,0,1,0,
102,4457.44,3978.46,4322.56,4140.51,4060,3548.21,4396.92,4443.59,4722.56,4473.33,4524.62,4349.74,4266.15,3970.77,1653,1693,0.772,0,0,0,0,1,0,
103,4457.44,3974.87,4324.62,4135.38,4069.23,3555.38,4402.56,4457.44,4734.87,4489.23,4531.28,4349.74,4267.18,3966.15,1655,1693,0.78,0,0,0,0,1,0,
104,4452.82,3975.9,4326.67,4144.1,4083.08,3560.51,4411.28,4465.13,4749.23,4497.95,4530.77,4351.28,4265.64,3958.97,1654,1692,0.787,0,0,0,0,1,0,
105,4447.69,3974.87,4324.62,4142.56,4081.03,3557.44,4411.79,4461.54,4744.1,4484.1,4521.54,4352.31,4264.62,3958.46,1655,1692,0.796,0,0,0,0,1,0,
106,4443.59,3963.59,4319.49,4134.36,4068.21,3548.72,4403.08,4455.9,4730.77,4470.77,4520,4348.72,4262.56,3961.03,1655,1692,0.803,0,0,0,0,1,0,
107,4448.21,3965.13,4324.1,4137.44,4067.18,3549.23,4403.08,4449.23,4731.28,4475.9,4524.62,4351.28,4264.1,3970.77,1655,1693,0.811,0,0,0,0,1,0,
108,4457.95,3976.41,4332.82,4145.64,4073.33,3553.33,4405.64,4443.08,4733.85,4482.05,4525.13,4357.95,4267.69,3977.95,1657,1693,0.819,0,0,0,0,1,0,
109,4458.97,3976.41,4330.77,4144.1,4070.26,3550.77,4400,4442.56,4723.59,4476.92,4522.05,4357.95,4266.15,3971.79,1656,1693,0.826,0,0,0,0,1,0,
110,4456.41,3971.28,4325.64,4140.51,4063.59,3550.26,4396.92,4444.1,4718.97,4474.87,4525.13,4355.9,4263.59,3969.23,1656,1692,0.834,0,0,0,0,1,0,
111,4458.97,3973.85,4328.21,4146.67,4068.72,3554.36,4398.97,4444.1,4728.72,4475.9,4534.87,4358.97,4270.26,3977.44,1656,1693,0.842,0,0,0,0,1,0,
112,4461.03,3979.49,4329.23,4145.64,4076.41,3553.33,4398.97,4444.62,4734.87,4474.36,4539.49,4358.97,4278.97,3976.41,1658,1692,0.85,0,0,0,0,1,0,
113,4461.03,3983.08,4328.72,4137.44,4079.49,3555.9,4400,4450.26,4734.36,4482.56,4534.87,4357.44,4277.95,3972.31,1656,1692,0.858,0,0,0,0,1,0,
114,4462.56,3981.54,4332.31,4138.97,4075.9,3556.92,4402.05,4458.97,4734.87,4491.79,4537.44,4363.08,4275.38,3977.95,1658,1691,0.866,0,0,0,0,1,0,
115,4462.56,3976.92,4332.82,4143.59,4068.72,3545.64,4400,4463.08,4737.95,4489.74,4539.49,4365.13,4276.92,3981.54,1657,1690,0.873,0,0,0,0,1,0,
116,4462.56,3975.9,4326.15,4139.49,4067.18,3541.54,4397.95,4457.95,4739.49,4491.28,4529.23,4357.95,4273.85,3976.92,1657,1691,0.881,0,0,0,0,1,0,
117,4451.79,3973.85,4316.92,4132.82,4062.56,3542.56,4394.87,4448.21,4729.74,4488.21,4520,4348.72,4265.64,3966.67,1657,1691,0.889,0,0,0,0,1,0,
118,4441.03,3971.79,4310.77,4132.82,4056.92,3540.51,4391.28,4441.54,4720.51,4472.82,4521.03,4343.08,4262.56,3958.46,1656,1692,0.897,0,0,0,0,1,0,
119,4449.23,3976.92,4311.28,4135.38,4066.67,3544.1,4394.36,4445.13,4728.72,4475.9,4523.59,4342.56,4265.13,3956.41,1656,1691,0.911,0,0,0,0,1,0,
120,4453.85,3977.95,4310.77,4137.44,4082.56,3548.21,4398.46,4448.72,4733.85,4485.64,4521.03,4342.05,4266.67,3956.41,1655,1692,0.913,0,0,0,0,1,0,
121,4442.56,3971.28,4308.72,4138.46,4075.9,3544.62,4395.38,4444.1,4725.13,4474.36,4518.46,4339.49,4264.62,3955.38,1656,1691,0.921,0,0,0,0,1,0,
122,4440,3971.28,4309.74,4134.87,4063.08,3541.54,4391.28,4441.54,4723.59,4467.18,4518.46,4337.95,4263.08,3954.87,1655,1691,0.929,0,0,0,0,1,0,
123,4451.28,3975.9,4312.31,4127.69,4071.28,3544.62,4393.33,4443.08,4726.67,4474.36,4520,4342.05,4262.56,3958.46,1655,1692,0.937,0,0,0,0,1,0,
124,4458.46,3975.9,4318.97,4129.74,4078.97,3544.62,4396.92,4448.21,4727.69,4482.05,4523.59,4349.74,4269.74,3967.69,1653,1693,0.944,0,0,0,0,1,0,
125,4462.05,3975.38,4328.72,4139.49,4069.23,3543.59,4398.46,4457.44,4735.9,4489.23,4534.87,4358.46,4279.49,3976.41,1654,1694,0.952,0,0,0,0,1,0,
126,4462.56,3975.9,4326.67,4134.87,4062.56,3544.62,4396.41,4461.03,4743.08,4491.79,4538.46,4358.46,4281.03,3974.36,1653,1693,0.96,0,0,0,0,1,0,
127,4458.46,3975.38,4320.51,4128.72,4068.21,3544.62,4397.44,4460.51,4740.51,4491.28,4528.72,4353.33,4276.92,3972.31,1653,1695,0.969,0,0,0,0,1,0,
128,4454.36,3974.87,4320,4131.28,4065.64,3545.13,4398.46,4455.9,4737.44,4490.77,4523.08,4350.77,4276.92,3971.79,1653,1693,0.977,0,0,0,0,1,0,
0,4451.28,3973.33,4317.95,4125.13,4056.41,3543.08,4391.28,4445.64,4731.79,4481.03,4522.56,4346.67,4277.95,3958.97,1653,1693,0.983,0,0,0,0,1,0,
1,4455.38,3971.28,4317.44,4125.13,4060.51,3540.51,4389.23,4440.51,4725.13,4469.74,4520.51,4346.15,4277.95,3955.38,1653,1692,0.991,0,0,0,0,1,0,
2,4458.46,3973.33,4317.95,4137.44,4064.62,3542.05,4396.92,4442.56,4722.05,4470.77,4521.03,4348.72,4280.51,3967.18,1652,1693,0.999,0,0,0,0,1,0,
3,4450.77,3974.87,4313.85,4135.38,4053.85,3544.1,4395.9,4442.05,4718.97,4473.85,4523.08,4345.64,4282.05,3966.15,1653,1692,1.007,0,0,0,0,1,0,
4,4440.51,3968.21,4307.18,4120,4045.13,3542.05,4388.72,4441.03,4719.49,4470.77,4518.97,4337.44,4279.49,3955.38,1653,1693,1.015,0,0,0,0,1,0,
5,4444.62,3970.26,4309.74,4121.54,4053.33,3544.62,4392.82,4441.54,4728.72,4469.74,4516.92,4337.44,4283.08,3956.41,1654,1692,1.023,0,0,0,0,1,0,
6,4460.51,3986.15,4322.05,4138.46,4063.59,3555.38,4401.03,4447.18,4737.44,4479.49,4524.1,4348.72,4294.36,3965.13,1655,1693,1.031,0,0,0,0,1,0,
7,4469.23,3994.87,4329.23,4144.1,4063.08,3558.46,4399.49,4452.82,4736.92,4488.72,4533.85,4355.9,4298.97,3971.28,1655,1692,1.038,0,0,0,0,1,0,
8,4465.13,3989.74,4327.69,4138.97,4063.59,3553.85,4399.49,4452.82,4735.38,4486.15,4536.92,4358.97,4297.44,3975.38,1656,1692,1.046,0,0,0,0,1,0,
9,4464.1,3988.72,4326.67,4141.03,4066.15,3556.41,4403.59,4452.31,4738.97,4484.62,4537.44,4361.03,4300.51,3982.05,1656,1692,1.055,0,0,0,0,1,0,
10,4472.82,3992.31,4328.72,4153.33,4064.1,3560.51,4402.56,4450.77,4740,4490.77,4540,4361.54,4305.64,3983.59,1656,1693,1.061,0,0,0,0,1,0,
11,4472.82,3991.28,4328.21,4154.87,4060.51,3557.95,4396.92,4444.1,4732.82,4491.28,4538.97,4358.97,4303.08,3978.46,1657,1692,1.069,0,0,0,0,1,0,
12,4462.05,3988.72,4325.64,4142.56,4053.33,3554.87,4394.87,4438.97,4729.74,4488.21,4535.38,4355.9,4297.95,3974.36,1657,1692,1.077,0,0,0,0,1,0,
13,4457.44,3987.69,4324.62,4136.41,4053.85,3555.38,4397.44,4447.18,4735.9,4490.77,4535.9,4352.31,4295.38,3974.36,1658,1691,1.086,0,0,0,0,1,0,
14,4461.03,3985.64,4326.15,4140,4063.59,3556.41,4398.46,4457.44,4739.49,4490.77,4536.41,4352.31,4293.33,3971.28,1656,1691,1.095,0,0,0,0,1,0,
15,4466.15,3987.18,4327.69,4144.1,4061.03,3556.41,4400,4458.46,4736.41,4490.26,4536.41,4356.92,4293.33,3973.85,1657,1692,1.104,0,0,0,0,1,0,
16,4470.26,3990.26,4328.21,4145.64,4052.31,3555.38,4401.54,4453.33,4736.41,4488.21,4536.92,4359.49,4295.38,3977.44,1656,1689,1.108,0,0,0,0,1,0,
17,4471.79,3991.28,4329.23,4147.18,4056.41,3554.87,4400,4447.69,4736.92,4478.46,4536.41,4357.95,4296.41,3976.92,1656,1691,1.116,0,0,0,0,1,0,
18,4471.79,3991.79,4330.26,4147.18,4061.03,3557.44,4400.51,4449.23,4736.92,4477.44,4537.44,4358.46,4298.46,3982.05,1657,1690,1.124,0,0,0,0,1,0,
19,4471.79,3992.82,4329.23,4144.1,4060,3560,4406.67,4454.36,4737.44,4489.23,4539.49,4357.95,4302.56,3988.72,1656,1688,1.132,0,0,0,0,1,0,
20,4472.82,3992.31,4329.74,4144.62,4062.05,3559.49,4410.77,4458.97,4740.51,4496.41,4539.49,4358.97,4303.59,3989.23,1656,1688,1.14,0,0,0,0,1,0,
21,4471.28,3991.79,4329.23,4145.64,4062.56,3558.46,4408.72,4457.95,4742.05,4491.28,4540,4361.54,4298.97,3986.15,1656,1688,1.147,0,0,0,0,1,0,
22,4463.59,3986.15,4327.18,4142.56,4060.51,3557.95,4404.1,4455.38,4733.85,4487.18,4539.49,4359.49,4295.9,3978.97,1656,1687,1.155,0,0,0,0,1,0,
23,4459.49,3979.49,4330.77,4143.59,4060,3557.44,4404.62,4457.95,4734.87,4488.72,4537.95,4360,4297.44,3975.9,1655,1689,1.163,0,0,0,0,1,0,
24,4463.08,3979.49,4337.44,4144.1,4051.79,3556.41,4406.67,4460,4745.13,4491.79,4539.49,4365.13,4296.41,3984.1,1657,1689,1.171,0,0,0,0,1,0,
25,4464.1,3983.08,4337.95,4136.92,4045.64,3555.9,4406.67,4462.05,4748.72,4493.33,4542.05,4369.23,4295.9,3989.74,1655,1690,1.179,0,0,0,0,1,0,
26,4462.56,3984.62,4334.87,4133.85,4053.33,3557.44,4409.23,4465.64,4746.15,4489.74,4541.54,4366.67,4295.38,3983.08,1655,1692,1.186,0,0,0,0,1,0,
27,4461.54,3977.95,4329.23,4136.92,4057.44,3556.92,4408.21,4460,4742.05,4491.28,4538.46,4359.49,4288.72,3975.9,1655,1691,1.194,0,0,0,0,1,0,
28,4456.41,3971.28,4325.64,4135.9,4052.82,3556.41,4403.59,4448.21,4736.41,4489.23,4535.9,4354.36,4278.97,3970.77,1655,1693,1.202,0,0,0,0,1,0,
29,4454.36,3976.92,4327.18,4134.87,4060.51,3558.46,4402.56,4443.08,4733.85,4478.46,4534.87,4355.38,4277.95,3967.18,1655,1691,1.21,0,0,0,0,1,0,
30,4459.49,3989.23,4328.72,4140,4070.77,3559.49,4401.03,4446.15,4737.44,4472.82,4534.87,4358.97,4286.15,3971.79,1654,1693,1.218,0,0,0,0,1,0,
31,4461.03,3991.28,4327.18,4139.49,4064.1,3557.95,4396.41,4447.18,4738.97,4476.92,4536.92,4358.46,4286.15,3975.38,1655,1693,1.226,0,0,0,0,1,0,
32,4458.46,3987.69,4329.74,4138.46,4061.03,3555.9,4395.38,4447.18,4736.41,4480,4535.9,4357.44,4277.95,3974.87,1654,1693,1.233,0,0,0,0,1,0,
33,4458.46,3988.72,4329.74,4139.49,4067.69,3553.85,4396.41,4445.64,4733.85,4476.92,4526.67,4355.38,4275.9,3973.85,1655,1692,1.241,0,0,0,0,1,0,
34,4460.51,3985.64,4327.18,4139.49,4056.41,3552.82,4393.85,4443.59,4732.31,4473.33,4523.08,4355.9,4281.03,3974.87,1654,1694,1.249,0,0,0,0,1,0,
35,4462.05,3984.1,4332.31,4138.46,4046.67,3554.87,4397.95,4445.64,4733.85,4474.87,4534.87,4361.03,4283.08,3973.33,1655,1693,1.257,0,0,0,0,1,0,
36,4460.51,3987.69,4336.92,4139.49,4056.41,3556.92,4406.67,4447.69,4732.31,4477.95,4540.51,4361.54,4282.05,3973.33,1654,1693,1.265,0,0,0,0,1,0,
37,4457.95,3982.05,4333.85,4140,4059.49,3556.92,4406.67,4447.69,4731.28,4476.41,4529.74,4357.44,4280.51,3975.38,1655,1694,1.272,0,0,0,0,1,0,
38,4457.44,3973.33,4332.31,4135.9,4047.69,3554.87,4399.49,4444.62,4733.33,4471.28,4521.54,4355.38,4275.38,3970.77,1656,1692,1.28,0,0,0,0,1,0,
39,4461.54,3980,4334.87,4135.9,4050.26,3553.33,4397.95,4443.59,4732.31,4474.36,4528.72,4359.49,4276.41,3973.85,1655,1694,1.288,0,0,0,0,1,0,
40,4463.59,3988.21,4335.9,4141.03,4061.03,3554.87,4400.51,4452.31,4736.41,4478.46,4538.46,4365.13,4280.51,3980.51,1656,1693,1.296,0,0,0,0,1,0,
41,4457.95,3984.62,4334.36,4140,4060.51,3554.87,4397.95,4460,4746.15,4477.44,4539.49,4365.64,4284.1,3978.46,1655,1693,1.304,0,0,0,0,1,0,
42,4457.44,3985.64,4330.26,4136.92,4058.97,3553.85,4396.41,4458.97,4749.74,4484.1,4537.95,4362.56,4290.26,3976.92,1657,1693,1.312,0,0,0,0,1,0,
43,4462.05,3992.31,4326.15,4140,4060.51,3556.41,4398.46,4456.92,4745.64,4494.36,4538.46,4357.44,4292.31,3980,1655,1693,1.319,0,0,0,0,1,0,
44,4461.03,3991.28,4325.64,4141.03,4061.03,3558.46,4400,4451.28,4741.03,4494.87,4533.85,4350.77,4284.62,3976.92,1656,1694,1.327,0,0,0,0,1,0,
45,4455.38,3988.72,4326.15,4137.95,4060,3556.41,4397.95,4442.05,4735.9,4490.26,4531.28,4347.69,4278.46,3970.26,1655,1693,1.335,0,0,0,0,1,0,
46,4456.41,3990.26,4324.62,4138.97,4058.97,3556.41,4397.95,4445.64,4735.38,4488.21,4533.33,4350.77,4280,3971.28,1655,1693,1.343,0,0,0,0,1,0,
47,4457.95,3992.31,4325.13,4141.03,4062.56,3560.51,4401.03,4456.92,4740,4489.23,4527.69,4351.28,4281.03,3972.82,1654,1693,1.351,0,0,0,0,1,0,
48,4458.46,3991.79,4327.69,4143.59,4068.72,3562.05,4404.1,4458.46,4740.51,4486.67,4525.64,4351.79,4276.92,3971.79,1654,1693,1.359,0,0,0,0,1,0,
49,4457.95,3988.21,4326.15,4144.62,4070.26,3558.97,4400,4455.9,4740.51,4477.44,4533.85,4352.31,4276.41,3974.36,1654,1691,1.366,0,0,0,0,1,0,
50,4458.46,3991.79,4326.15,4142.56,4072.31,3557.44,4396.92,4458.46,4747.18,4477.44,4536.92,4353.33,4286.67,3978.97,1653,1693,1.375,0,0,0,0,1,0,
51,4468.21,4002.56,4333.33,4148.21,4078.46,3559.49,4402.05,4460.51,4751.79,4495.9,4536.41,4361.54,4298.46,3986.15,1655,1691,1.382,0,0,0,0,1,0,
52,4474.87,4003.08,4337.95,4155.9,4077.44,3560.51,4405.64,4459.49,4749.74,4506.67,4541.03,4368.21,4297.44,3987.69,1653,1691,1.39,0,0,0,0,1,0,
53,4471.79,3991.79,4335.38,4149.23,4066.67,3559.49,4403.59,4460,4749.23,4504.1,4541.54,4366.15,4293.33,3987.69,1654,1691,1.398,0,0,0,0,1,0,
54,4469.23,3992.82,4334.36,4142.56,4065.13,3557.44,4401.54,4461.03,4750.26,4505.13,4540,4365.13,4296.92,3993.33,1654,1690,1.405,0,0,0,0,1,0,
55,4465.64,3998.97,4331.28,4145.13,4072.31,3556.41,4398.46,4459.49,4750.26,4505.13,4542.05,4365.64,4298.46,3991.28,1654,1691,1.413,0,0,0,0,1,0,
56,4457.44,3991.79,4326.67,4141.03,4072.31,3555.9,4397.95,4456.41,4744.1,4495.38,4537.95,4359.49,4290.26,3971.28,1654,1691,1.421,0,0,0,0,1,0,
57,4453.85,3985.64,4327.18,4135.9,4066.67,3556.92,4398.97,4454.36,4734.87,4486.67,4532.82,4353.33,4282.05,3966.67,1655,1691,1.429,0,0,0,0,1,0,
58,4458.46,3991.79,4328.72,4137.95,4064.62,3557.44,4398.97,4450.77,4734.36,4485.64,4534.87,4353.33,4281.03,3980.51,1655,1690,1.437,0,0,0,0,1,0,
59,4459.49,3996.92,4328.72,4143.08,4068.21,3558.46,4401.03,4449.74,4741.03,4486.67,4537.95,4355.9,4282.56,3980.51,1655,1691,1.445,0,0,0,0,1,0,
60,4457.95,3996.41,4333.33,4149.23,4074.36,3558.97,4402.05,4454.87,4743.59,4490.26,4536.92,4358.97,4281.03,3975.9,1656,1691,1.452,0,0,0,0,1,0,
61,4460,3996.41,4335.9,4150.26,4078.97,3557.44,4397.95,4457.95,4741.03,4491.28,4535.38,4358.97,4280.51,3983.08,1657,1691,1.46,0,0,0,0,1,0,
62,4461.54,3996.41,4333.85,4143.59,4073.85,3555.9,4396.41,4455.9,4738.97,4489.23,4535.9,4356.41,4281.54,3984.62,1656,1691,1.468,0,0,0,0,1,0,
63,4461.54,4000,4333.33,4145.13,4062.56,3555.9,4398.46,4455.9,4737.95,4487.69,4535.38,4357.95,4282.56,3980.51,1657,1690,1.476,0,0,0,0,1,0,
64,4462.05,4005.64,4335.38,4153.33,4063.08,3555.9,4399.49,4460.51,4742.05,4490.26,4535.38,4364.62,4282.05,3982.05,1656,1691,1.484,0,0,0,0,1,0,
65,4461.54,4004.1,4335.38,4152.82,4072.82,3556.92,4399.49,4459.49,4744.1,4491.79,4536.92,4364.62,4280.51,3978.46,1656,1690,1.491,0,0,0,0,1,0,
66,4458.46,3994.87,4330.77,4145.64,4075.9,3556.92,4398.46,4453.33,4737.44,4486.15,4534.36,4358.46,4282.05,3974.36,1656,1690,1.499,0,0,0,0,1,0,
67,4456.92,3989.23,4326.15,4142.56,4071.79,3557.95,4397.44,4453.33,4734.87,4484.1,4529.23,4354.36,4281.03,3974.87,1656,1690,1.507,0,0,0,0,1,0,
68,4456.92,3985.13,4326.15,4142.56,4072.82,3559.49,4398.97,4458.97,4738.46,4489.23,4531.79,4355.38,4276.92,3973.33,1656,1689,1.515,0,0,0,0,1,0,
69,4457.44,3982.56,4327.18,4144.1,4076.92,3558.97,4398.97,4459.49,4740,4492.31,4538.46,4359.49,4283.08,3980.51,1655,1691,1.523,0,0,0,0,1,0,
70,4461.54,3987.69,4329.74,4149.74,4077.44,3556.41,4397.44,4456.92,4742.05,4491.28,4540.51,4365.13,4294.87,3989.74,1656,1689,1.531,0,0,0,0,1,0,
71,4463.59,3991.79,4333.33,4152.82,4071.79,3557.95,4397.95,4458.97,4749.23,4492.82,4540,4366.67,4295.38,3989.23,1654,1691,1.538,0,0,0,0,1,0,
72,4461.03,3989.74,4331.28,4146.67,4066.15,3559.49,4398.97,4462.05,4749.74,4491.28,4539.49,4363.59,4292.82,3987.69,1655,1691,1.546,0,0,0,0,1,0,
73,4457.95,3986.67,4328.21,4145.13,4066.15,3555.9,4397.44,4455.38,4740,4490.26,4537.44,4359.49,4292.82,3984.62,1655,1690,1.554,0,0,0,0,1,0,
74,4455.9,3988.21,4327.18,4153.33,4068.72,3552.82,4396.41,4444.62,4732.31,4490.77,4537.44,4356.92,4286.67,3976.41,1654,1691,1.562,0,0,0,0,1,0,
75,4455.9,3989.23,4326.67,4150.26,4071.79,3554.36,4396.92,4442.05,4731.28,4482.05,4536.41,4355.9,4281.03,3976.92,1655,1691,1.57,0,0,0,0,1,0,
76,4457.95,3987.18,4325.13,4140,4073.33,3554.87,4395.9,4444.62,4732.31,4473.33,4527.69,4353.33,4280.51,3981.54,1655,1691,1.577,0,0,0,0,1,0,
77,4461.03,3984.62,4325.13,4143.59,4070.26,3554.36,4394.87,4448.21,4732.31,4472.31,4520.51,4348.21,4277.44,3978.97,1656,1690,1.586,0,0,0,0,1,0,
78,4463.59,3987.18,4328.72,4153.85,4065.13,3555.9,4396.92,4454.87,4733.33,4474.36,4525.64,4354.36,4275.38,3983.08,1655,1691,1.593,0,0,0,0,1,0,
79,4465.13,3991.79,4336.41,4153.85,4069.74,3558.46,4400,4460,4739.49,4486.67,4537.95,4365.64,4282.56,3992.82,1656,1690,1.601,0,0,0,0,1,0,
80,4462.56,3989.74,4336.41,4149.23,4079.49,3556.92,4398.97,4460.51,4746.15,4497.95,4541.03,4365.13,4291.79,3990.77,1655,1692,1.609,0,0,0,0,1,0,
81,4458.46,3987.69,4327.69,4148.72,4080,3555.38,4396.92,4456.41,4746.67,4492.82,4536.41,4356.41,4293.33,3985.64,1657,1691,1.617,0,0,0,0,1,0,
82,4460.51,3991.79,4326.15,4152.31,4075.9,3557.44,4396.41,4449.23,4741.54,4492.82,4536.92,4352.31,4288.72,3987.69,1655,1691,1.624,0,0,0,0,1,0,
83,4461.03,3994.36,4327.18,4152.82,4077.95,3556.41,4392.82,4444.1,4736.92,4495.38,4537.44,4351.28,4284.62,3984.62,1656,1691,1.632,0,0,0,0,1,0,
84,4453.33,3988.21,4321.54,4147.69,4074.36,3553.85,4386.67,4440,4731.79,4471.28,4527.18,4347.18,4276.92,3971.79,1656,1689,1.64,0,0,0,0,1,0,
85,4451.79,3986.15,4322.05,4146.15,4074.87,3555.38,4388.21,4442.05,4730.26,4458.46,4518.46,4347.18,4273.33,3969.74,1656,1691,1.648,0,0,0,0,1,0,
86,4460,3995.9,4331.79,4152.82,4084.62,3557.44,4396.41,4454.36,4736.92,4485.13,4530.26,4355.38,4284.62,3985.13,1655,1689,1.656,0,0,0,0,1,0,
87,4460.51,3998.46,4331.79,4154.87,4082.56,3556.41,4397.95,4459.49,4741.03,4502.56,4541.03,4359.49,4294.36,3992.82,1655,1690,1.663,0,0,0,0,1,0,
88,4456.92,3991.28,4324.62,4148.72,4073.33,3557.44,4396.41,4451.28,4737.95,4494.36,4531.28,4354.87,4287.69,3982.56,1655,1690,1.671,0,0,0,0,1,0,
89,4457.95,3989.23,4321.54,4143.59,4074.36,3553.33,4397.95,4447.18,4734.87,4487.69,4522.05,4347.69,4279.49,3974.87,1655,1691,1.679,0,0,0,0,1,0,
90,4452.31,3991.28,4319.49,4138.97,4076.92,3545.64,4394.36,4446.67,4733.33,4483.08,4523.59,4346.15,4280,3974.87,1656,1690,1.687,0,0,0,0,1,0,
91,4445.64,3989.23,4318.97,4141.54,4074.36,3547.69,4390.77,4445.13,4732.82,4475.9,4527.18,4349.74,4278.97,3971.79,1654,1692,1.695,0,0,0,0,1,0,
92,4453.85,3990.77,4325.13,4149.74,4075.9,3553.33,4393.33,4448.72,4735.38,4480,4532.82,4355.9,4280.51,3974.87,1655,1691,1.703,0,0,0,0,1,0,
93,4462.05,3996.92,4329.74,4154.87,4078.97,3555.9,4397.95,4450.77,4737.44,4490.77,4540.51,4358.97,4288.72,3985.13,1654,1692,1.71,0,0,0,0,1,0,
94,4459.49,3994.36,4327.69,4150.77,4077.95,3552.31,4394.87,4445.13,4731.79,4490.26,4534.87,4357.95,4286.15,3983.08,1654,1692,1.718,0,0,0,0,1,0,
95,4454.87,3987.69,4326.15,4144.62,4073.85,3544.62,4389.23,4440.51,4726.15,4479.49,4526.15,4354.36,4276.92,3975.38,1654,1692,1.726,0,0,0,0,1,0,
96,4458.97,3993.85,4333.33,4149.23,4073.33,3546.67,4392.82,4448.72,4731.79,4478.97,4533.33,4359.49,4283.08,3983.08,1654,1693,1.734,0,0,0,0,1,0,
97,4471.28,4006.67,4343.59,4157.95,4078.97,3557.44,4400,4460.51,4741.03,4492.31,4544.62,4371.79,4297.44,3993.85,1654,1693,1.742,0,0,0,0,1,0,
98,4473.33,4003.08,4344.1,4158.46,4081.54,3557.44,4400,4460.51,4739.49,4500,4544.62,4374.87,4297.44,3993.33,1653,1693,1.749,0,0,0,0,1,0,
99,4461.54,3991.28,4337.95,4152.31,4081.03,3551.79,4396.41,4457.95,4733.33,4488.72,4537.44,4365.64,4287.18,3990.77,1654,1693,1.757,0,0,0,0,1,0,
100,4455.38,3989.74,4331.28,4148.72,4080.51,3555.9,4395.9,4454.36,4733.33,4474.87,4534.87,4356.92,4278.97,3984.1,1652,1694,1.766,0,0,0,0,1,0,
101,4458.46,3992.31,4327.69,4145.13,4078.46,3558.46,4396.41,4449.23,4735.9,4480.51,4536.41,4356.41,4279.49,3974.36,1653,1693,1.773,0,0,0,0,1,0,
102,4458.46,3991.79,4327.18,4142.56,4077.95,3557.44,4400,4453.85,4735.38,4494.87,4535.9,4357.44,4289.74,3974.87,1652,1694,1.781,0,0,0,0,1,0,
103,4456.41,3989.74,4326.15,4140,4077.44,3557.95,4401.03,4455.9,4733.33,4492.82,4534.87,4352.82,4296.41,3981.54,1653,1694,1.789,0,0,0,0,1,0,
104,4456.41,3987.69,4324.1,4137.44,4072.31,3555.9,4398.46,4450.77,4733.85,4484.62,4535.9,4350.26,4296.41,3983.08,1652,1693,1.796,0,0,0,0,1,0,
105,4458.97,3991.28,4327.18,4144.1,4068.21,3554.87,4398.97,4452.31,4738.97,4495.9,4540.51,4358.46,4306.67,3987.69,1653,1694,1.804,0,0,0,0,1,0,
106,4463.59,3998.46,4330.26,4154.36,4069.23,3556.41,4400.51,4454.87,4742.05,4496.41,4541.54,4361.54,4315.9,3991.28,1653,1693,1.812,0,0,0,0,1,0,
107,4460.51,3995.38,4327.18,4152.82,4067.18,3554.36,4396.92,4452.82,4739.49,4476.92,4537.44,4353.85,4304.1,3981.03,1653,1693,1.82,0,0,0,0,1,0,
108,4451.79,3986.15,4322.05,4141.03,4064.1,3545.64,4392.82,4457.95,4738.46,4477.95,4535.38,4349.23,4292.31,3970.77,1654,1692,1.828,0,0,0,0,1,0,
109,4446.67,3988.21,4319.49,4138.46,4058.97,3544.1,4393.33,4458.46,4740.51,4497.95,4534.87,4347.18,4296.41,3972.31,1654,1693,1.836,0,0,0,0,1,0,
110,4446.67,3988.21,4318.46,4141.54,4053.85,3549.23,4391.79,4446.15,4733.33,4492.82,4529.23,4344.1,4296.92,3976.41,1655,1693,1.843,0,0,0,0,1,0,
111,4444.1,3977.44,4316.41,4138.46,4058.97,3551.28,4388.72,4439.49,4721.03,4470.77,4522.56,4341.03,4288.21,3969.74,1654,1692,1.851,0,0,0,0,1,0,
112,4441.03,3979.49,4315.38,4140,4065.64,3553.85,4391.79,4440.51,4722.05,4470.77,4520.51,4340.51,4285.64,3962.56,1656,1692,1.859,0,0,0,0,1,0,
113,4447.69,3996.41,4320.51,4149.74,4063.59,3558.97,4397.95,4443.08,4732.31,4476.41,4522.56,4346.15,4292.82,3967.18,1655,1692,1.867,0,0,0,0,1,0,
114,4458.97,4003.08,4326.67,4151.79,4068.21,3559.49,4398.97,4446.15,4735.38,4469.74,4529.74,4352.82,4296.92,3974.36,1655,1692,1.875,0,0,0,0,1,0,
115,4453.85,3993.85,4320,4143.08,4069.23,3556.92,4395.9,4447.18,4733.33,4474.87,4533.33,4348.72,4295.38,3975.38,1655,1691,1.882,0,0,0,0,1,0,
116,4440,3985.64,4311.28,4137.44,4054.36,3555.38,4395.38,4445.64,4733.33,4489.23,4528.21,4340.51,4292.31,3968.21,1656,1691,1.89,0,0,0,0,1,0,
117,4445.13,3987.18,4316.92,4140,4051.79,3555.9,4397.95,4444.62,4734.87,4493.85,4532.31,4345.13,4293.85,3968.21,1656,1690,1.898,0,0,0,0,1,0,
118,4459.49,3990.26,4325.13,4140,4062.56,3551.79,4397.95,4445.13,4731.28,4486.15,4537.95,4351.79,4297.44,3977.44,1655,1689,1.906,0,0,0,0,1,0,
119,4457.44,3988.72,4321.54,4136.41,4054.36,3545.13,4392.82,4441.03,4728.72,4476.41,4527.69,4347.69,4294.87,3981.03,1655,1690,1.914,0,0,0,0,1,0,
120,4455.38,3991.79,4322.56,4143.59,4046.15,3548.72,4393.33,4443.08,4732.31,4476.92,4526.15,4346.15,4293.33,3978.97,1656,1688,1.922,0,0,0,0,1,0,
121,4463.08,3998.46,4330.26,4153.85,4057.95,3556.92,4397.95,4454.36,4739.49,4490.77,4539.49,4353.85,4301.03,3981.03,1654,1689,1.929,0,0,0,0,1,0,
122,4457.95,3994.36,4323.08,4146.67,4065.64,3556.41,4395.9,4454.87,4738.97,4497.95,4540.51,4351.28,4302.05,3979.49,1657,1688,1.937,0,0,0,0,1,0,
123,4445.64,3987.69,4312.82,4135.9,4062.05,3552.31,4392.31,4445.13,4735.38,4490.26,4534.36,4343.08,4295.9,3971.79,1655,1688,1.945,0,0,0,0,1,0,
124,4444.62,3988.21,4317.95,4139.49,4065.64,3554.36,4393.85,4448.21,4736.92,4488.72,4536.41,4346.67,4296.41,3971.79,1656,1689,1.953,0,0,0,0,1,0,
125,4452.82,3993.33,4325.13,4148.21,4070.77,3560,4399.49,4455.38,4740.51,4494.36,4539.49,4352.31,4298.97,3974.87,1656,1688,1.961,0,0,0,0,1,0,
126,4458.97,3997.44,4325.13,4152.82,4068.72,3562.56,4404.62,4451.79,4739.49,4491.79,4537.95,4351.28,4297.95,3974.87,1654,1691,1.968,0,0,0,0,1,0,
127,4452.82,3994.87,4322.56,4150.77,4065.13,3558.46,4398.97,4445.64,4734.36,4490.26,4535.38,4349.23,4293.85,3972.82,1655,1690,1.976,0,0,0,0,1,0,
128,4445.64,3988.21,4324.1,4142.05,4062.05,3553.33,4389.74,4444.62,4730.77,4492.31,4534.87,4350.26,4288.21,3969.74,1654,1691,1.984,0,0,0,0,1,0,
0,4448.21,3988.72,4325.13,4138.97,4058.46,3554.36,4393.85,4450.77,4732.82,4488.72,4537.44,4353.33,4287.69,3972.31,1656,1691,1.992,0,0,0,0,1,0,
1,4449.23,3992.31,4326.15,4139.49,4057.44,3556.92,4402.05,4457.95,4736.92,4485.64,4538.97,4354.87,4291.79,3976.41,1655,1692,2,0,0,0,0,1,0,
2,4449.23,3989.23,4325.13,4137.44,4062.05,3556.92,4401.54,4458.97,4736.92,4490.77,4540,4355.38,4295.38,3978.97,1655,1692,2.008,0,0,0,0,1,0,
3,4455.38,3987.69,4325.64,4142.56,4068.72,3557.44,4400.51,4458.46,4736.92,4494.87,4539.49,4356.92,4293.85,3981.54,1654,1693,2.041,0,0,0,0,1,0,
4,4454.87,3990.77,4327.69,4146.67,4068.72,3558.46,4401.03,4454.36,4738.46,4487.18,4536.92,4354.87,4287.18,3979.49,1655,1693,2.041,0,0,0,0,1,0,
5,4438.46,3990.77,4320.51,4137.44,4059.49,3557.44,4396.41,4444.62,4733.85,4473.85,4528.72,4343.59,4276.92,3967.18,1654,1693,2.041,0,0,0,0,1,0,
6,4427.69,3982.56,4309.23,4132.31,4058.97,3554.87,4393.33,4438.46,4723.08,4471.28,4514.36,4330.26,4267.69,3955.9,1654,1695,2.041,0,0,0,0,1,0,
7,4433.33,3978.97,4307.18,4137.44,4067.69,3554.87,4393.85,4442.05,4723.59,4477.44,4508.21,4326.67,4268.72,3952.82,1655,1693,2.047,0,0,0,0,1,0,
8,4440,3988.72,4315.38,4138.97,4068.21,3556.92,4392.82,4443.08,4732.31,4476.41,4517.95,4333.33,4277.44,3957.44,1654,1694,2.055,0,0,0,0,1,0,
9,4444.62,3999.49,4323.59,4142.05,4067.18,3556.41,4391.79,4440,4733.33,4477.44,4530.77,4344.62,4287.69,3968.21,1655,1693,2.062,0,0,0,0,1,0,
10,4452.82,4005.64,4327.69,4152.82,4067.69,3556.92,4393.85,4447.69,4733.33,4488.72,4537.95,4350.77,4293.33,3976.41,1654,1694,2.07,0,0,0,0,1,0,
11,4462.56,4005.64,4330.26,4156.92,4063.08,3560.51,4397.95,4457.95,4739.49,4494.87,4541.54,4352.82,4296.41,3977.95,1655,1694,2.078,0,0,0,0,1,0,
12,4459.49,3996.92,4328.72,4146.15,4062.56,3559.49,4395.38,4451.28,4739.49,4491.28,4538.46,4349.74,4295.9,3975.9,1655,1694,2.086,0,0,0,0,1,0,
13,4448.72,3989.74,4320,4135.38,4069.23,3554.87,4389.23,4441.54,4732.82,4488.72,4534.87,4343.08,4293.33,3973.85,1655,1694,2.094,0,0,0,0,1,0,
14,4444.62,3990.77,4311.79,4135.38,4067.18,3553.33,4394.36,4445.13,4732.82,4490.26,4535.38,4341.54,4291.79,3972.31,1654,1694,2.102,0,0,0,0,1,0,
15,4444.1,3991.28,4309.74,4137.44,4057.95,3553.85,4400,4446.67,4733.85,4486.15,4530.77,4341.03,4284.62,3970.26,1655,1694,2.109,0,0,0,0,1,0,
16,4441.03,3987.18,4312.31,4133.85,4058.46,3552.82,4392.31,4443.08,4730.26,4477.95,4522.05,4337.95,4277.44,3968.21,1654,1694,2.117,0,0,0,0,1,0,
17,4443.59,3989.23,4320,4138.97,4065.13,3552.31,4387.18,4444.1,4730.77,4482.05,4521.03,4341.03,4282.05,3969.74,1654,1693,2.125,0,0,0,0,1,0,
18,4455.38,3998.97,4328.21,4151.28,4067.69,3553.33,4393.85,4445.64,4734.87,4492.82,4532.31,4347.18,4292.31,3976.41,1654,1692,2.133,0,0,0,0,1,0,
19,4458.46,4003.59,4325.13,4149.74,4064.62,3554.36,4395.9,4447.18,4735.38,4491.28,4536.41,4344.1,4291.28,3976.92,1653,1693,2.141,0,0,0,0,1,0,
20,4447.69,3996.92,4320.51,4140.51,4059.49,3556.92,4394.36,4449.23,4734.36,4485.13,4528.21,4340,4289.23,3971.28,1655,1692,2.148,0,0,0,0,1,0,
21,4443.08,3989.74,4321.54,4138.46,4060,3558.46,4398.46,4449.23,4735.38,4489.74,4524.62,4343.59,4289.74,3970.77,1654,1692,2.156,0,0,0,0,1,0,
22,4443.59,3988.21,4317.95,4139.49,4062.05,3556.92,4396.41,4448.72,4734.36,4492.31,4525.64,4341.03,4284.62,3975.9,1654,1692,2.164,0,0,0,0,1,0,
23,4440.51,3986.15,4312.82,4135.38,4055.38,3553.85,4388.21,4446.15,4733.85,4487.69,4525.64,4334.87,4283.59,3971.28,1653,1691,2.172,0,0,0,0,1,0,
24,4446.15,3986.67,4320,4133.85,4050.26,3553.85,4390.77,4448.72,4737.95,4486.15,4533.85,4344.62,4293.85,3970.26,1654,1692,2.18,0,0,0,0,1,0,
25,4460.51,3992.82,4335.9,4145.64,4057.44,3556.41,4398.46,4458.46,4738.97,4493.85,4543.08,4361.03,4302.56,3989.23,1653,1690,2.187,0,0,0,0,1,0,
26,4464.1,3994.87,4343.59,4152.82,4064.62,3555.9,4397.44,4456.92,4734.87,4497.44,4540,4365.13,4298.97,3997.95,1654,1691,2.195,0,0,0,0,1,0,
27,4453.85,3989.23,4337.95,4144.1,4056.41,3553.33,4394.36,4446.15,4731.79,4488.72,4535.9,4358.46,4291.28,3983.59,1654,1690,2.203,0,0,0,0,1,0,
28,4446.67,3986.15,4330.77,4136.41,4051.79,3554.87,4396.41,4452.31,4732.82,4481.54,4531.79,4354.36,4285.13,3978.97,1654,1691,2.211,0,0,0,0,1,0,
29,4448.21,3990.77,4327.18,4140.51,4061.54,3558.46,4397.95,4461.54,4736.92,4478.46,4523.08,4351.28,4283.08,3985.13,1655,1690,2.219,0,0,0,0,1,0,
30,4448.21,3992.82,4326.15,4143.08,4070.26,3555.9,4397.95,4451.79,4736.41,4476.41,4521.54,4347.69,4281.03,3977.95,1654,1692,2.227,0,0,0,0,1,0,
31,4444.62,3988.72,4324.62,4138.97,4069.23,3545.64,4397.95,4441.54,4729.74,4477.44,4526.67,4346.15,4277.44,3970.77,1656,1690,2.234,0,0,0,0,1,0,
32,4442.05,3986.15,4324.62,4139.49,4061.54,3533.85,4393.33,4443.08,4727.69,4476.92,4525.13,4347.18,4278.97,3973.85,1654,1691,2.243,0,0,0,0,1,0,
33,4442.05,3989.23,4324.62,4137.95,4057.44,3527.18,4389.23,4444.62,4732.31,4474.87,4524.1,4351.28,4282.05,3976.92,1656,1691,2.25,0,0,0,0,1,0,
34,4449.23,3992.31,4327.18,4138.46,4062.05,3520.51,4388.72,4442.05,4733.85,4477.44,4527.69,4354.36,4283.08,3983.08,1655,1690,2.258,0,0,0,0,1,0,
35,4458.46,3992.82,4328.21,4149.23,4068.72,3512.31,4388.72,4442.56,4730.26,4476.92,4528.72,4352.31,4280,3985.64,1655,1690,2.266,0,0,0,0,1,0,
36,4453.85,3991.79,4326.15,4151.28,4069.23,3509.23,4388.21,4443.59,4727.69,4471.28,4524.62,4349.74,4277.44,3977.95,1656,1691,2.273,0,0,0,0,1,0,
37,4446.15,3988.21,4325.64,4140.51,4065.13,3507.69,4387.69,4440.51,4723.08,4475.9,4520.51,4348.21,4277.95,3972.31,1656,1692,2.281,0,0,0,0,1,0,
38,4453.85,3991.28,4326.15,4141.03,4062.05,3506.15,4386.67,4438.97,4722.56,4486.67,4524.62,4350.26,4278.97,3976.41,1655,1691,2.289,0,0,0,0,1,0,
39,4462.05,4001.03,4327.69,4152.82,4064.62,3509.23,4388.21,4442.05,4730.77,4491.28,4535.9,4351.79,4280,3984.1,1655,1692,2.297,0,0,0,0,1,0,
40,4454.36,4000,4326.67,4150.77,4068.72,3508.72,4388.72,4445.64,4736.92,4491.79,4535.9,4348.21,4282.56,3982.56,1656,1691,2.305,0,0,0,0,1,0,
41,4445.13,3989.74,4318.46,4138.46,4067.69,3503.08,4389.23,4445.64,4736.92,4492.31,4524.62,4342.56,4282.56,3974.87,1655,1692,2.313,0,0,0,0,1,0,
42,4442.05,3989.74,4312.82,4137.44,4067.69,3503.08,4390.77,4445.13,4735.9,4491.79,4520,4340,4276.92,3970.77,1655,1692,2.321,0,0,0,0,1,0,
43,4442.56,3997.44,4318.97,4144.62,4074.36,3504.1,4388.72,4445.13,4735.38,4489.74,4524.62,4340.51,4276.41,3973.33,1656,1693,2.328,0,0,0,0,1,0,
44,4451.79,4000,4327.18,4152.82,4079.49,3501.03,4387.18,4447.69,4734.87,4487.18,4530.77,4345.64,4284.62,3981.54,1655,1692,2.337,0,0,0,0,1,0,
45,4461.03,3998.97,4326.15,4152.31,4072.82,3501.03,4390.26,4449.23,4736.41,4488.21,4537.95,4353.33,4288.72,3988.21,1655,1693,2.344,0,0,0,0,1,0,
46,4455.38,3998.97,4326.67,4144.1,4066.15,3500.51,4389.23,4446.15,4736.41,4489.23,4537.44,4353.33,4285.13,3983.59,1654,1693,2.352,0,0,0,0,1,0,
47,4444.62,3995.38,4328.72,4140,4067.18,3495.38,4384.62,4443.59,4730.26,4481.03,4526.67,4345.64,4278.97,3974.36,1654,1694,2.36,0,0,0,0,1,0,
48,4442.56,3987.69,4323.08,4140.51,4063.59,3493.85,4383.08,4441.54,4719.49,4474.36,4519.49,4340,4268.72,3969.74,1655,1692,2.367,0,0,0,0,1,0,
49,4443.08,3984.62,4316.41,4140,4058.46,3495.9,4384.62,4440,4719.49,4476.92,4519.49,4337.44,4261.03,3967.18,1654,1693,2.375,0,0,0,0,1,0,
50,4442.05,3986.15,4320.51,4139.49,4066.67,3494.87,4388.21,4443.08,4732.31,4482.05,4521.54,4339.49,4266.67,3969.74,1655,1692,2.383,0,0,0,0,1,0,
51,4443.59,3985.64,4327.18,4139.49,4071.28,3494.87,4389.74,4447.69,4738.97,4485.64,4525.13,4347.69,4276.41,3974.36,1653,1692,2.391,0,0,0,0,1,0,
52,4444.1,3980.51,4325.64,4137.44,4061.03,3495.38,4384.1,4445.13,4734.36,4489.74,4525.64,4349.74,4277.95,3973.33,1655,1694,2.399,0,0,0,0,1,0,
53,4442.05,3981.03,4322.56,4135.9,4058.97,3495.38,4383.59,4441.03,4731.28,4491.79,4523.08,4344.62,4276.92,3970.77,1655,1692,2.406,0,0,0,0,1,0,
54,4443.08,3986.15,4320,4137.44,4069.74,3494.87,4391.28,4443.08,4733.85,4486.15,4523.59,4342.05,4275.38,3974.36,1655,1694,2.414,0,0,0,0,1,0,
55,4442.56,3984.62,4315.9,4139.49,4068.72,3495.38,4391.28,4445.64,4730.77,4476.41,4518.97,4337.95,4268.72,3972.82,1655,1693,2.422,0,0,0,0,1,0,
56,4435.9,3979.49,4310.77,4136.41,4058.46,3495.38,4384.1,4437.44,4721.03,4471.79,4510.26,4331.79,4263.08,3963.08,1655,1693,2.43,0,0,0,0,1,0,
57,4434.87,3983.08,4311.28,4133.85,4061.03,3493.85,4381.03,4428.72,4721.03,4472.82,4515.38,4334.36,4267.69,3962.56,1655,1691,2.438,0,0,0,0,1,0,
58,4445.64,3994.36,4320.51,4143.08,4069.23,3496.41,4382.56,4435.38,4728.72,4472.82,4527.69,4342.05,4278.97,3975.9,1655,1692,2.446,0,0,0,0,1,0,
59,4452.31,3997.44,4328.72,4153.33,4068.21,3501.03,4383.59,4440.51,4727.18,4477.95,4526.67,4345.64,4283.08,3982.05,1656,1690,2.453,0,0,0,0,1,0,
60,4447.18,3990.26,4323.08,4150.26,4069.74,3497.44,4383.08,4435.38,4723.08,4488.72,4520.51,4342.05,4279.49,3975.9,1656,1692,2.461,0,0,0,0,1,0,
61,4442.05,3987.18,4313.85,4140,4075.9,3495.9,4383.08,4435.9,4724.62,4487.69,4522.05,4333.85,4275.9,3972.82,1657,1691,2.469,0,0,0,0,1,0,
62,4442.56,3990.77,4315.38,4141.54,4076.92,3505.13,4383.59,4442.05,4727.69,4483.08,4523.08,4332.82,4277.44,3971.79,1655,1691,2.477,0,0,0,0,1,0,
63,4445.13,3992.31,4321.03,4149.23,4077.95,3508.21,4383.59,4444.1,4732.82,4483.08,4523.59,4339.49,4279.49,3972.82,1656,1692,2.485,0,0,0,0,1,0,
64,4443.08,3989.23,4320.51,4147.18,4073.85,3499.49,4383.59,4443.08,4733.33,4478.46,4524.1,4338.97,4281.03,3975.9,1656,1690,2.492,0,0,0,0,1,0,
65,4436.41,3984.1,4316.92,4140.51,4061.54,3495.9,4383.59,4436.92,4723.59,4474.87,4522.05,4332.82,4280.51,3970.26,1654,1692,2.501,0,0,0,0,1,0,
66,4434.87,3982.05,4316.41,4137.44,4061.03,3496.92,4382.05,4430.77,4713.33,4476.92,4520.51,4330.77,4272.82,3962.56,1655,1692,2.508,0,0,0,0,1,0,
67,4440,3986.15,4320.51,4141.54,4068.72,3494.87,4379.49,4436.92,4717.44,4477.95,4520,4335.9,4269.74,3966.15,1653,1692,2.517,0,0,0,0,1,0,
68,4443.59,3991.79,4326.15,4143.59,4067.69,3494.87,4379.49,4443.59,4723.08,4476.41,4522.05,4342.56,4276.41,3974.87,1653,1693,2.524,0,0,0,0,1,0,
69,4439.49,3988.72,4327.18,4142.05,4065.64,3497.44,4381.03,4441.03,4721.03,4473.85,4523.59,4339.49,4275.9,3969.23,1653,1694,2.532,0,0,0,0,1,0,
70,4430.77,3976.41,4323.08,4138.97,4064.62,3494.36,4381.54,4442.05,4718.46,4470.77,4518.46,4332.82,4263.08,3958.46,1653,1693,2.539,0,0,0,0,1,0,
71,4426.15,3969.74,4321.03,4132.82,4057.95,3496.92,4386.67,4446.67,4723.08,4472.82,4510.77,4333.85,4259.49,3957.44,1652,1694,2.547,0,0,0,0,1,0,
72,4427.69,3971.79,4315.9,4130.77,4056.41,3505.13,4390.26,4444.62,4730.26,4475.9,4506.67,4329.74,4263.59,3958.46,1653,1693,2.556,0,0,0,0,1,0,
73,4428.72,3973.85,4312.31,4133.33,4061.54,3505.64,4388.72,4447.18,4731.28,4475.38,4511.79,4326.15,4263.59,3958.46,1652,1692,2.563,0,0,0,0,1,0,
74,4431.79,3974.87,4317.95,4137.95,4058.97,3505.13,4389.74,4456.41,4736.41,4480,4520.51,4334.36,4274.87,3966.15,1653,1693,2.571,0,0,0,0,1,0,
75,4430.77,3975.38,4318.97,4137.95,4054.36,3508.72,4390.26,4454.36,4737.95,4484.1,4516.41,4335.38,4284.1,3968.72,1653,1691,2.579,0,0,0,0,1,0,
76,4421.03,3971.28,4310.77,4130.77,4052.82,3505.64,4383.08,4440,4724.1,4474.36,4504.1,4322.56,4270.26,3954.36,1653,1692,2.586,0,0,0,0,1,0,
77,4418.97,3969.74,4308.21,4125.13,4049.23,3498.46,4381.03,4434.87,4715.38,4460,4503.59,4321.03,4264.1,3950.77,1654,1691,2.594,0,0,0,0,1,0,
78,4427.69,3973.33,4313.33,4128.72,4053.33,3502.05,4383.59,4440.51,4720,4460.51,4510.77,4330.77,4277.95,3961.03,1653,1692,2.602,0,0,0,0,1,0,
79,4428.72,3974.87,4316.41,4136.41,4056.41,3506.67,4381.54,4442.56,4720,4469.74,4513.85,4333.85,4283.08,3960.51,1654,1692,2.61,0,0,0,0,1,0,
80,4426.67,3972.82,4320,4137.44,4046.15,3507.69,4387.18,4442.05,4717.95,4476.92,4517.95,4334.36,4276.41,3960.51,1654,1693,2.618,0,0,0,0,1,0,
81,4430.26,3974.36,4325.13,4137.44,4043.59,3512.31,4397.44,4443.08,4725.64,4480,4525.13,4336.92,4280,3968.21,1655,1692,2.625,0,0,0,0,1,0,
82,4429.74,3975.9,4318.46,4138.46,4051.28,3512.31,4392.82,4443.08,4726.15,4470.77,4519.49,4333.85,4282.05,3965.13,1655,1692,2.633,0,0,0,0,1,0,
83,4425.13,3973.85,4309.23,4135.9,4047.18,3506.15,4382.05,4438.46,4716.41,4459.49,4508.21,4327.18,4272.31,3955.38,1657,1693,2.641,0,0,0,0,1,0,
84,4424.62,3972.82,4309.23,4136.41,4038.97,3504.1,4381.03,4434.36,4715.9,4461.03,4505.64,4326.67,4268.72,3958.46,1655,1691,2.649,0,0,0,0,1,0,
85,4426.67,3977.44,4311.79,4138.46,4044.1,3509.74,4382.56,4434.87,4717.95,4465.64,4508.72,4326.67,4275.38,3965.64,1656,1692,2.657,0,0,0,0,1,0,
86,4433.33,3984.62,4312.82,4138.97,4049.23,3511.28,4381.54,4434.36,4716.92,4467.18,4511.28,4327.18,4280,3969.23,1657,1690,2.665,0,0,0,0,1,0,
87,4441.54,3988.72,4317.44,4140,4045.64,3507.18,4382.05,4435.9,4717.95,4469.74,4517.95,4334.87,4278.46,3973.33,1655,1692,2.672,0,0,0,0,1,0,
88,4443.59,3989.74,4324.1,4143.59,4044.62,3507.69,4382.56,4441.54,4718.97,4474.36,4525.13,4341.54,4283.08,3975.9,1656,1691,2.68,0,0,0,0,1,0,
89,4440.51,3989.23,4324.62,4142.05,4052.31,3512.82,4386.15,4444.62,4723.59,4483.59,4523.08,4340,4290.26,3975.9,1655,1692,2.688,0,0,0,0,1,0,
90,4441.03,3988.72,4321.03,4136.41,4060.51,3514.36,4390.77,4443.08,4733.85,4488.21,4524.1,4340,4288.21,3974.87,1656,1691,2.696,0,0,0,0,1,0,
91,4443.08,3989.74,4321.54,4142.56,4057.44,3512.31,4390.77,4445.13,4736.41,4482.05,4534.36,4343.08,4287.69,3977.95,1655,1691,2.704,0,0,0,0,1,0,
92,4442.05,3990.26,4325.64,4150.26,4047.18,3512.82,4388.72,4447.69,4732.31,4483.08,4538.46,4342.56,4293.85,3982.05,1655,1690,2.712,0,0,0,0,1,0,
93,4441.54,3989.74,4326.67,4143.59,4041.03,3512.31,4389.74,4447.69,4732.31,4491.28,4536.92,4340.51,4296.41,3978.46,1656,1689,2.719,0,0,0,0,1,0,
94,4443.08,3987.69,4323.08,4135.38,4045.13,3511.28,4390.26,4445.64,4732.31,4492.82,4537.44,4340.51,4294.87,3973.85,1655,1689,2.726,0,0,0,0,1,0,
95,4441.03,3984.1,4323.08,4138.97,4052.31,3513.85,4389.23,4445.64,4729.23,4488.72,4535.38,4342.56,4293.33,3975.38,1655,1689,2.735,0,0,0,0,1,0,
96,4434.36,3982.56,4325.13,4141.54,4047.18,3513.33,4389.23,4445.13,4725.64,4485.64,4526.67,4341.54,4288.21,3976.41,1656,1688,2.743,0,0,0,0,1,0,
97,4435.9,3985.13,4323.59,4140.51,4039.49,3509.23,4389.23,4444.1,4721.03,4483.59,4522.56,4338.46,4282.05,3972.82,1654,1689,2.751,0,0,0,0,1,0,
98,4444.1,3987.18,4323.59,4143.59,4047.69,3510.26,4389.74,4446.67,4724.62,4481.54,4527.18,4341.54,4281.03,3975.9,1655,1690,2.758,0,0,0,0,1,0,
99,4440.51,3985.13,4326.15,4144.1,4054.87,3512.82,4390.77,4447.69,4729.23,4474.87,4527.18,4344.62,4279.49,3974.87,1654,1691,2.766,0,0,0,0,1,0,
100,4430.26,3980.51,4321.54,4139.49,4042.05,3509.23,4387.69,4445.13,4720.51,4473.33,4521.54,4337.95,4276.92,3964.62,1655,1691,2.774,0,0,0,0,1,0,
101,4428.21,3977.44,4315.38,4134.87,4031.79,3507.18,4384.62,4444.62,4718.46,4477.95,4520.51,4332.31,4275.9,3963.08,1654,1692,2.782,0,0,0,0,1,0,
102,4430.77,3980.51,4319.49,4136.92,4040,3510.26,4385.64,4445.64,4730.26,4477.44,4523.59,4338.97,4275.38,3971.28,1655,1692,2.79,0,0,0,0,1,0,
103,4431.79,3985.64,4322.56,4141.03,4047.69,3511.79,4385.64,4444.62,4731.28,4475.9,4524.62,4342.56,4277.95,3971.28,1653,1692,2.798,0,0,0,0,1,0,
104,4431.79,3983.59,4319.49,4140,4042.05,3509.74,4381.54,4444.1,4719.49,4474.36,4522.05,4336.92,4277.95,3968.21,1654,1695,2.806,0,0,0,0,1,0,
105,4430.77,3981.54,4318.97,4137.95,4039.49,3507.18,4376.92,4440,4717.44,4470.77,4521.54,4332.82,4271.79,3971.28,1655,1692,2.813,0,0,0,0,1,0,
106,4428.72,3985.13,4316.41,4137.44,4044.62,3506.15,4372.82,4430.26,4718.97,4473.85,4518.46,4331.28,4270.77,3966.67,1653,1694,2.821,0,0,0,0,1,0,
107,4428.21,3982.56,4310.77,4137.95,4045.64,3506.15,4370.26,4423.59,4711.28,4471.79,4510.26,4327.18,4271.28,3956.41,1655,1694,2.829,0,0,0,0,1,0,
108,4428.72,3976.92,4309.74,4137.44,4042.56,3506.15,4373.85,4424.1,4706.67,4460.51,4504.1,4325.13,4265.13,3956.92,1654,1694,2.837,0,0,0,0,1,0,
109,4427.69,3978.97,4310.26,4136.41,4043.08,3506.67,4380,4433.85,4713.33,4463.59,4510.77,4328.21,4265.13,3966.15,1655,1694,2.844,0,0,0,0,1,0,
110,4429.74,3983.59,4310.77,4137.44,4045.13,3508.21,4382.05,4444.62,4722.56,4474.87,4522.56,4333.85,4274.87,3972.82,1655,1693,2.852,0,0,0,0,1,0,
111,4436.41,3987.18,4317.44,4137.95,4037.95,3510.26,4381.03,4446.67,4730.26,4474.36,4525.64,4338.97,4281.03,3974.36,1655,1694,2.859,0,0,0,0,1,0,
112,4436.41,3985.13,4320,4137.95,4032.82,3511.28,4380,4446.15,4729.23,4474.36,4522.05,4337.95,4278.97,3974.87,1655,1693,2.868,0,0,0,0,1,0,
113,4428.72,3975.38,4312.31,4135.38,4042.05,3510.26,4380,4440.51,4717.95,4473.85,4516.92,4330.26,4271.28,3967.18,1656,1693,2.876,0,0,0,0,1,0,
114,4427.69,3974.36,4307.69,4134.87,4046.67,3509.74,4378.97,4430.77,4712.31,4466.15,4515.9,4325.13,4265.64,3959.49,1655,1693,2.884,0,0,0,0,1,0,
115,4431.79,3981.54,4311.79,4136.41,4038.97,3511.28,4380,4432.31,4718.97,4468.21,4518.97,4328.72,4271.79,3962.56,1655,1694,2.891,0,0,0,0,1,0,
116,4430.77,3978.97,4315.9,4136.41,4033.33,3512.82,4385.13,4444.1,4722.56,4479.49,4521.03,4335.9,4276.92,3970.26,1656,1692,2.899,0,0,0,0,1,0,
117,4429.74,3973.33,4314.87,4136.41,4037.95,3512.31,4390.26,4446.15,4721.54,4476.92,4522.05,4337.44,4273.85,3968.21,1655,1693,2.907,0,0,0,0,1,0,
118,4429.74,3974.87,4311.79,4133.33,4041.54,3512.31,4387.18,4435.38,4717.44,4466.67,4518.97,4333.85,4269.74,3961.54,1656,1693,2.915,0,0,0,0,1,0,
119,4421.54,3973.85,4307.18,4127.69,4035.9,3508.72,4376.92,4425.64,4707.69,4458.97,4509.74,4327.18,4261.03,3955.9,1654,1692,2.923,0,0,0,0,1,0,
120,4414.87,3971.28,4307.18,4127.18,4029.23,3506.15,4373.33,4425.64,4701.54,4458.97,4504.62,4324.1,4248.72,3950.77,1656,1692,2.929,0,0,0,0,1,0,
121,4418.97,3974.36,4310.77,4129.74,4032.31,3509.23,4380,4430.77,4704.62,4456.92,4508.72,4325.64,4252.31,3954.87,1654,1692,2.938,0,0,0,0,1,0,
122,4425.64,3974.87,4310.77,4131.79,4036.92,3510.26,4380.51,4428.72,4705.13,4445.13,4506.15,4324.62,4261.54,3958.97,1654,1692,2.946,0,0,0,0,1,0,
123,4424.62,3973.85,4309.74,4134.36,4035.38,3505.13,4375.38,4426.15,4707.18,4444.62,4503.08,4324.1,4262.05,3958.97,1654,1692,2.954,0,0,0,0,1,0,
124,4428.72,3978.97,4313.85,4137.95,4036.41,3504.1,4378.46,4435.9,4715.9,4460,4514.36,4331.79,4265.13,3964.62,1654,1692,2.962,0,0,0,0,1,0,
125,4438.46,3984.62,4322.56,4139.49,4036.92,3509.23,4384.1,4442.56,4722.56,4469.74,4524.62,4338.97,4274.36,3976.41,1653,1691,2.97,0,0,0,0,1,0,
126,4443.08,3982.56,4327.18,4140.51,4033.33,3511.79,4382.56,4442.56,4727.18,4483.59,4527.18,4344.62,4280,3982.56,1653,1692,2.977,0,0,0,0,1,0,
127,4443.08,3976.92,4327.69,4140.51,4035.9,3511.28,4381.03,4443.59,4731.79,4494.87,4529.23,4349.74,4282.56,3981.03,1654,1691,2.995,0,0,0,0,1,0,
128,4438.46,3975.9,4325.64,4138.46,4038.97,3511.28,4381.03,4445.64,4729.23,4482.56,4527.69,4346.67,4280,3975.9,1653,1691,2.996,0,0,0,0,1,0,
0,4435.38,3975.9,4324.62,4136.41,4035.38,3512.82,4384.1,4444.62,4727.69,4473.33,4523.59,4342.56,4275.38,3974.87,1654,1691,3,0,0,0,0,1,0,
1,4442.56,3974.87,4327.18,4136.92,4038.97,3513.85,4389.23,4448.21,4734.36,4491.28,4530.77,4347.69,4285.13,3983.59,1653,1690,3.009,0,0,0,0,1,0,
2,4447.18,3974.36,4328.21,4138.46,4044.62,3513.33,4387.69,4452.31,4738.46,4494.87,4541.54,4353.33,4292.82,3992.31,1655,1691,3.016,0,0,0,0,1,0,
3,4443.59,3976.92,4327.18,4139.49,4038.46,3513.85,4382.56,4448.21,4732.31,4478.46,4537.44,4352.31,4285.13,3990.26,1655,1691,3.024,0,0,0,0,1,0,
4,4441.54,3979.49,4327.18,4137.95,4035.9,3512.31,4381.54,4444.1,4722.56,4474.87,4524.1,4347.69,4276.41,3981.03,1655,1691,3.032,0,0,0,0,1,0,
5,4442.56,3983.08,4326.15,4137.44,4045.64,3512.31,4383.59,4443.08,4717.44,4478.97,4517.44,4343.08,4270.26,3975.9,1656,1690,3.046,0,0,0,0,1,0,
6,4442.56,3988.21,4324.1,4141.03,4045.13,3519.49,4387.18,4443.08,4720,4475.9,4518.97,4341.03,4262.05,3983.08,1656,1691,3.05,0,0,0,0,1,0,
7,4442.56,3989.23,4324.1,4143.08,4039.49,3526.15,4390.77,4445.64,4723.59,4475.9,4523.08,4343.08,4266.67,3988.72,1655,1691,3.056,0,0,0,0,1,0,
8,4442.05,3986.15,4325.13,4140.51,4051.28,3522.56,4389.23,4446.67,4722.56,4476.41,4523.08,4342.05,4274.87,3987.18,1656,1690,3.062,0,0,0,0,1,0,
9,4440.51,3985.13,4324.62,4136.92,4060,3522.05,4389.74,4444.1,4724.62,4475.9,4522.56,4341.54,4269.74,3985.13,1656,1690,3.07,0,0,0,0,1,0,
10,4441.54,3989.23,4326.15,4138.97,4050.26,3528.72,4396.41,4444.62,4726.67,4475.38,4524.62,4343.59,4269.23,3984.1,1655,1692,3.079,0,0,0,0,1,0,
11,4441.03,3987.18,4326.15,4138.97,4047.69,3529.23,4399.49,4443.08,4724.62,4474.36,4524.62,4342.56,4275.38,3977.44,1656,1690,3.087,0,0,0,0,1,0,
12,4440,3977.95,4322.56,4134.87,4053.33,3523.08,4396.92,4443.59,4727.18,4484.62,4523.59,4339.49,4277.44,3977.44,1654,1690,3.095,0,0,0,0,1,0,
13,4441.03,3982.05,4321.03,4136.92,4051.28,3523.59,4396.92,4454.36,4733.33,4497.44,4524.62,4340,4277.95,3986.15,1656,1691,3.102,0,0,0,0,1,0,
14,4443.08,3995.38,4326.15,4140.51,4053.33,3527.69,4400,4460.51,4735.38,4494.36,4525.13,4345.13,4278.46,3989.74,1655,1690,3.109,0,0,0,0,1,0,
15,4445.13,3996.92,4329.23,4141.54,4059.49,3527.69,4399.49,4458.46,4732.31,4490.77,4526.67,4350.77,4278.46,3988.72,1654,1691,3.118,0,0,0,0,1,0,
16,4444.62,3989.23,4326.67,4145.13,4052.31,3525.64,4397.95,4455.9,4728.21,4491.28,4526.67,4351.28,4277.95,3988.72,1655,1690,3.126,0,0,0,0,1,0,
17,4449.23,3991.28,4328.21,4152.31,4046.15,3525.64,4397.95,4449.23,4726.67,4476.41,4524.1,4349.23,4275.9,3992.82,1654,1691,3.134,0,0,0,0,1,0,
18,4456.92,3995.9,4333.85,4153.85,4054.36,3533.33,4398.97,4447.18,4730.77,4469.23,4528.72,4350.77,4276.41,3995.9,1654,1690,3.142,0,0,0,0,1,0,
19,4459.49,4001.03,4336.41,4152.82,4061.03,3539.49,4399.49,4455.9,4733.85,4486.15,4538.46,4356.92,4282.05,3998.46,1653,1692,3.149,0,0,0,0,1,0,
20,4458.97,4005.64,4335.9,4153.85,4060,3535.9,4399.49,4460.51,4733.85,4494.87,4537.44,4357.44,4282.05,4001.54,1654,1691,3.157,0,0,0,0,1,0,
21,4455.9,3998.97,4332.82,4152.82,4062.05,3530.77,4399.49,4452.82,4734.36,4491.28,4528.21,4353.85,4280.51,3997.95,1654,1693,3.165,0,0,0,0,1,0,
22,4445.64,3989.74,4328.21,4145.13,4061.54,3530.26,4395.38,4445.13,4729.23,4488.21,4524.1,4350.26,4280.51,3990.26,1654,1692,3.173,0,0,0,0,1,0,
23,4438.97,3989.23,4324.62,4137.44,4053.33,3525.64,4389.23,4441.54,4721.54,4480,4525.13,4345.64,4273.33,3988.21,1654,1693,3.181,0,0,0,0,1,0,
24,4442.56,3989.74,4319.49,4136.41,4048.72,3521.03,4386.67,4442.05,4721.03,4473.85,4523.59,4340,4265.13,3987.69,1655,1692,3.188,0,0,0,0,1,0,
25,4437.95,3987.69,4312.31,4136.41,4051.79,3523.08,4387.18,4443.59,4721.54,4474.36,4520,4335.38,4264.62,3981.54,1654,1693,3.196,0,0,0,0,1,0,
26,4427.18,3988.72,4313.33,4137.44,4050.77,3525.64,4389.74,4442.56,4721.03,4473.33,4522.05,4335.9,4267.18,3979.49,1654,1692,3.204,0,0,0,0,1,0,
27,4430.26,3988.72,4318.97,4140,4050.77,3524.62,4394.36,4448.21,4724.1,4478.97,4524.1,4339.49,4264.62,3983.08,1654,1693,3.212,0,0,0,0,1,0,
28,4441.03,3985.13,4322.56,4138.46,4060,3525.13,4397.44,4457.95,4731.28,4492.31,4521.54,4344.62,4263.59,3984.1,1655,1692,3.219,0,0,0,0,1,0,
29,4444.62,3987.18,4327.69,4140.51,4063.08,3533.85,4402.05,4461.03,4736.41,4490.77,4530.26,4349.74,4272.82,3988.21,1653,1692,3.228,0,0,0,0,1,0,
30,4443.08,3990.26,4337.44,4152.82,4054.36,3542.56,4407.18,4461.03,4737.44,4478.46,4538.97,4353.33,4281.03,3991.79,1655,1691,3.236,0,0,0,0,1,0,
31,4444.1,3990.77,4338.46,4153.33,4051.79,3537.95,4402.56,4457.44,4734.36,4477.95,4530.77,4350.26,4274.87,3991.28,1653,1690,3.243,0,0,0,0,1,0,
32,4442.56,3985.13,4329.74,4142.56,4055.38,3527.69,4394.87,4447.18,4728.21,4481.54,4520.51,4343.59,4263.08,3988.21,1655,1692,3.25,0,0,0,0,1,0,
33,4439.49,3980.51,4325.64,4143.08,4053.33,3525.13,4395.38,4440,4720.51,4475.9,4522.05,4342.56,4261.54,3983.08,1655,1691,3.259,0,0,0,0,1,0,
34,4440,3985.64,4326.67,4144.1,4053.33,3525.64,4393.33,4441.54,4715.9,4471.28,4523.08,4342.05,4263.08,3974.87,1654,1692,3.266,0,0,0,0,1,0,
35,4438.97,3990.77,4325.13,4137.44,4060.51,3524.62,4390.26,4442.05,4716.41,4475.38,4520,4340,4260.51,3972.82,1654,1692,3.274,0,0,0,0,1,0,
36,4437.95,3991.28,4325.13,4142.05,4058.46,3522.56,4392.82,4440.51,4716.92,4475.9,4520.51,4339.49,4263.08,3981.03,1655,1692,3.281,0,0,0,0,1,0,
37,4444.1,3998.97,4331.28,4152.82,4051.79,3528.72,4396.92,4444.1,4721.54,4476.92,4522.05,4345.64,4272.82,3989.23,1655,1689,3.289,0,0,0,0,1,0,
38,4451.79,4010.26,4336.41,4155.38,4059.49,3539.49,4398.46,4449.23,4731.79,4488.21,4529.74,4351.79,4281.03,3992.31,1655,1691,3.299,0,0,0,0,1,0,
39,4450.26,4005.64,4333.33,4152.82,4067.69,3535.9,4399.49,4449.74,4736.41,4496.92,4534.87,4350.26,4282.56,3993.33,1656,1690,3.306,0,0,0,0,1,0,
40,4443.08,3994.36,4327.18,4149.23,4062.56,3526.15,4396.41,4446.15,4730.26,4491.79,4527.69,4344.1,4275.9,3986.15,1654,1690,3.314,0,0,0,0,1,0,
41,4440,3992.31,4323.08,4144.1,4057.95,3526.67,4389.74,4442.05,4721.03,4479.49,4521.03,4337.44,4265.13,3978.46,1656,1690,3.321,0,0,0,0,1,0,
42,4441.03,3992.31,4323.08,4145.64,4060.51,3528.72,4388.21,4441.54,4716.41,4466.67,4521.03,4332.82,4261.54,3979.49,1655,1690,3.329,0,0,0,0,1,0,
43,4443.59,3991.28,4324.62,4149.23,4067.18,3526.15,4390.26,4442.05,4717.44,4463.59,4520,4336.41,4263.08,3980,1655,1691,3.336,0,0,0,0,1,0,
44,4444.1,3991.79,4327.18,4146.15,4069.23,3527.18,4390.26,4441.03,4718.46,4470.77,4517.44,4343.08,4261.54,3974.87,1655,1690,3.344,0,0,0,0,1,0,
45,4442.05,3992.31,4326.67,4143.08,4058.46,3528.72,4391.28,4441.03,4716.92,4475.38,4520,4342.56,4260,3977.95,1655,1692,3.353,0,0,0,0,1,0,
46,4443.59,3991.79,4327.69,4142.05,4048.72,3528.72,4394.87,4444.62,4720.51,4474.87,4523.08,4341.03,4264.62,3987.18,1655,1692,3.36,0,0,0,0,1,0,
47,4442.56,3990.26,4326.67,4138.46,4051.79,3530.77,4396.92,4445.13,4723.59,4474.36,4520.51,4341.03,4265.13,3982.56,1654,1693,3.368,0,0,0,0,1,0,
48,4432.31,3982.56,4316.41,4133.85,4052.82,3530.26,4394.87,4443.59,4721.03,4473.33,4519.49,4337.44,4262.05,3972.31,1654,1694,3.377,0,0,0,0,1,0,
49,4426.15,3974.36,4312.31,4130.77,4051.79,3529.23,4396.41,4444.62,4719.49,4471.79,4520.51,4332.82,4261.54,3974.36,1653,1693,3.384,0,0,0,0,1,0,
50,4427.69,3973.85,4317.44,4128.21,4060,3527.69,4398.97,4446.15,4720,4466.67,4510.77,4327.69,4260.51,3971.79,1653,1692,3.392,0,0,0,0,1,0,
51,4427.18,3975.38,4318.46,4128.72,4061.54,3527.69,4398.46,4445.64,4717.44,4464.62,4504.62,4328.21,4259.49,3959.49,1652,1692,3.399,0,0,0,0,1,0,
52,4428.72,3976.41,4316.92,4134.87,4047.69,3536.92,4398.97,4446.67,4717.44,4472.31,4517.44,4336.92,4269.23,3963.08,1653,1693,3.407,0,0,0,0,1,0,
53,4435.9,3981.54,4318.46,4137.95,4043.59,3540,4400.51,4447.18,4721.03,4478.46,4526.15,4338.46,4281.03,3976.92,1653,1691,3.414,0,0,0,0,1,0,
54,4440.51,3986.15,4320.51,4135.38,4052.82,3529.23,4398.46,4444.62,4720.51,4474.87,4518.97,4331.28,4284.1,3977.44,1653,1692,3.423,0,0,0,0,1,0,
55,4449.23,3992.82,4324.1,4136.92,4052.82,3525.64,4396.92,4443.59,4720,4472.82,4519.49,4336.92,4290.77,3978.46,1653,1691,3.431,0,0,0,0,1,0,
56,4458.46,4002.56,4328.72,4143.59,4047.69,3532.31,4397.44,4444.1,4723.59,4475.9,4527.69,4348.72,4297.95,3991.79,1653,1693,3.439,0,0,0,0,1,0,
57,4452.82,3998.97,4327.18,4144.62,4050.26,3530.26,4396.92,4443.59,4724.62,4476.92,4526.15,4347.18,4289.74,3992.31,1654,1692,3.446,0,0,0,0,1,0,
58,4443.59,3988.72,4324.62,4137.44,4050.26,3525.64,4395.9,4444.1,4722.05,4476.92,4521.03,4340.51,4279.49,3978.46,1653,1693,3.454,0,0,0,0,1,0,
59,4438.46,3982.05,4321.03,4131.28,4036.92,3526.67,4397.44,4444.62,4721.03,4475.38,4519.49,4335.9,4278.46,3971.28,1655,1693,3.461,0,0,0,0,1,0,
60,4429.74,3975.9,4315.9,4127.69,4031.79,3530.77,4399.49,4442.56,4716.92,4473.33,4518.46,4332.82,4275.38,3969.23,1653,1692,3.47,0,0,0,0,1,0,
61,4428.21,3974.36,4320,4127.18,4041.54,3537.44,4402.05,4447.18,4718.97,4474.87,4520,4337.44,4273.85,3969.23,1655,1692,3.477,0,0,0,0,1,0,
62,4438.97,3981.03,4328.21,4130.77,4046.67,3541.03,4405.13,4458.97,4729.74,4476.41,4524.1,4346.15,4284.1,3972.31,1655,1692,3.485,0,0,0,0,1,0,
63,4445.13,3985.64,4328.21,4136.41,4046.67,3541.03,4405.64,4456.41,4730.77,4476.92,4524.62,4346.67,4287.69,3976.41,1656,1692,3.494,0,0,0,0,1,0,
64,4442.56,3987.18,4325.13,4140.51,4051.79,3540.51,4403.08,4447.69,4727.18,4476.92,4526.15,4341.54,4280.51,3974.87,1655,1690,3.5,0,0,0,0,1,0,
65,4443.59,3994.87,4326.15,4141.54,4053.85,3539.49,4403.08,4452.82,4732.31,4476.41,4533.33,4343.08,4283.08,3975.9,1656,1692,3.509,0,0,0,0,1,0,
66,4449.74,4000,4329.23,4142.56,4046.15,3540,4405.13,4459.49,4735.9,4481.03,4538.46,4350.26,4292.31,3985.13,1656,1690,3.516,0,0,0,0,1,0,
67,4453.33,4000,4329.74,4147.18,4042.56,3540,4402.56,4453.33,4729.23,4484.62,4534.36,4350.77,4292.31,3989.23,1655,1691,3.524,0,0,0,0,1,0,
68,4448.72,3997.44,4328.21,4151.79,4042.05,3531.28,4396.92,4444.1,4718.97,4478.97,4525.13,4345.13,4285.64,3983.08,1655,1691,3.532,0,0,0,0,1,0,
69,4447.69,3995.38,4330.26,4151.28,4041.03,3527.18,4397.44,4446.67,4721.03,4472.82,4521.54,4345.64,4287.18,3981.03,1654,1690,3.539,0,0,0,0,1,0,
70,4454.36,3995.9,4335.38,4150.26,4044.1,3536.41,4405.64,4456.41,4732.31,4479.49,4528.72,4351.79,4291.28,3987.69,1654,1689,3.547,0,0,0,0,1,0,
71,4456.92,3997.95,4336.92,4150.26,4042.05,3542.05,4410.77,4461.03,4736.92,4489.23,4535.9,4354.36,4294.87,3991.28,1654,1689,3.557,0,0,0,0,1,0,
72,4457.95,3996.92,4335.38,4145.13,4043.59,3541.54,4411.28,4461.03,4738.97,4493.85,4537.44,4355.38,4299.49,3989.74,1655,1689,3.564,0,0,0,0,1,0,
73,4456.41,3992.31,4333.85,4141.03,4056.41,3542.56,4411.79,4465.13,4742.56,4493.33,4538.46,4354.87,4300,3989.74,1655,1687,3.571,0,0,0,0,1,0,
74,4449.23,3991.79,4334.87,4146.15,4057.44,3543.08,4411.79,4465.13,4736.92,4492.82,4538.46,4351.28,4296.41,3990.77,1655,1687,3.579,0,0,0,0,1,0,
75,4446.15,3992.31,4333.85,4147.69,4044.62,3542.56,4411.79,4460.51,4732.31,4496.41,4537.95,4350.77,4294.87,3990.26,1655,1687,3.586,0,0,0,0,1,0,
76,4445.64,3989.23,4328.21,4138.46,4040.51,3543.08,4412.31,4459.49,4731.79,4487.69,4537.44,4350.77,4294.87,3984.1,1655,1689,3.595,0,0,0,0,1,0,
77,4443.59,3989.74,4324.62,4141.03,4047.18,3543.08,4410.77,4460,4728.21,4479.49,4536.41,4348.21,4292.31,3983.08,1655,1690,3.603,0,0,0,0,1,0,
78,4447.18,3997.95,4328.21,4153.33,4049.23,3544.1,4412.31,4460.51,4729.74,4485.13,4536.41,4349.74,4291.28,3988.21,1655,1691,3.611,0,0,0,0,1,0,
79,4447.69,3998.97,4327.69,4147.18,4045.64,3542.05,4410.77,4455.38,4730.77,4482.05,4530.77,4350.26,4285.64,3982.56,1654,1691,3.619,0,0,0,0,1,0,
80,4442.56,3994.36,4325.13,4138.46,4044.62,3531.79,4399.49,4443.59,4717.95,4472.31,4522.05,4346.67,4278.46,3974.36,1655,1692,3.626,0,0,0,0,1,0,
81,4449.74,3997.95,4331.28,4148.72,4050.26,3527.69,4393.33,4440.51,4712.82,4472.82,4522.56,4350.77,4278.46,3984.1,1654,1692,3.634,0,0,0,0,1,0,
82,4461.03,4003.59,4339.49,4156.92,4052.82,3533.85,4395.9,4443.59,4721.54,4475.38,4530.77,4359.49,4278.97,3993.85,1655,1692,3.642,0,0,0,0,1,0,
83,4459.49,4004.1,4338.97,4153.33,4044.1,3538.97,4396.92,4446.67,4722.05,4481.54,4532.31,4358.46,4278.97,3989.74,1654,1692,3.649,0,0,0,0,1,0,
84,4455.38,4002.56,4332.82,4150.26,4041.03,3538.46,4396.41,4454.87,4723.08,4491.79,4528.21,4352.82,4282.05,3990.77,1654,1694,3.657,0,0,0,0,1,0,
85,4453.85,3997.44,4327.18,4144.62,4043.08,3539.49,4402.05,4461.54,4731.79,4488.21,4525.64,4351.28,4281.03,3990.26,1655,1692,3.665,0,0,0,0,1,0,
86,4446.15,3988.21,4323.59,4135.9,4042.05,3539.49,4405.13,4458.97,4732.82,4473.33,4523.08,4343.08,4276.41,3975.9,1653,1694,3.672,0,0,0,0,1,0,
87,4442.05,3990.26,4323.59,4137.95,4042.56,3538.97,4404.62,4452.31,4723.08,4470.77,4522.56,4337.44,4276.92,3972.82,1655,1694,3.68,0,0,0,0,1,0,
88,4447.69,4004.1,4326.67,4145.13,4044.1,3541.03,4407.69,4446.67,4717.44,4476.92,4524.62,4347.18,4280,3982.05,1654,1694,3.689,0,0,0,0,1,0,
89,4447.69,4006.15,4326.67,4144.1,4044.1,3541.03,4404.62,4443.08,4716.92,4472.31,4523.59,4349.74,4277.95,3976.92,1654,1695,3.696,0,0,0,0,1,0,
90,4447.18,3997.44,4323.59,4144.62,4045.13,3537.44,4396.92,4441.54,4715.9,4464.62,4520.51,4341.03,4274.87,3970.77,1654,1694,3.705,0,0,0,0,1,0,
91,4457.95,4005.13,4328.72,4151.79,4047.18,3538.46,4396.92,4441.54,4717.44,4470.26,4526.67,4348.21,4280.51,3987.18,1654,1694,3.712,0,0,0,0,1,0,
92,4466.15,4016.92,4337.95,4155.9,4049.23,3541.54,4400.51,4443.59,4720,4477.95,4537.95,4360.51,4291.28,3997.44,1654,1693,3.72,0,0,0,0,1,0,
93,4460.51,4010.26,4340.51,4151.79,4050.77,3539.49,4395.9,4443.08,4717.95,4476.92,4537.44,4358.97,4294.36,3989.23,1655,1694,3.728,0,0,0,0,1,0,
94,4457.95,4003.59,4342.05,4151.28,4051.28,3538.46,4396.41,4445.64,4722.05,4475.9,4534.87,4358.46,4292.31,3991.79,1655,1693,3.736,0,0,0,0,1,0,
95,4468.72,4015.9,4346.67,4161.03,4051.79,3542.05,4409.23,4455.9,4733.85,4476.92,4540,4367.18,4297.44,4005.64,1655,1694,3.744,0,0,0,0,1,0,
96,4474.36,4021.03,4346.67,4167.18,4051.28,3545.64,4414.87,4460.51,4736.92,4482.05,4544.62,4370.26,4303.59,4008.21,1655,1693,3.751,0,0,0,0,1,0,
97,4464.1,4008.21,4341.03,4160.51,4049.74,3545.64,4411.28,4458.97,4732.31,4494.36,4541.54,4365.64,4299.49,3998.46,1654,1693,3.759,0,0,0,0,1,0,
98,4456.41,4002.05,4337.44,4151.79,4049.74,3544.62,4411.28,4459.49,4733.85,4495.9,4538.97,4360,4294.36,3991.79,1656,1693,3.766,0,0,0,0,1,0,
99,4459.49,4006.67,4335.9,4152.31,4051.28,3545.64,4415.38,4463.59,4738.46,4488.72,4538.97,4357.95,4295.9,3990.77,1654,1692,3.774,0,0,0,0,1,0,
100,4460,4008.21,4330.77,4153.85,4053.33,3545.64,4413.33,4463.59,4736.92,4492.31,4537.95,4355.9,4295.9,3988.21,1655,1692,3.782,0,0,0,0,1,0,
101,4457.95,4010.77,4325.64,4151.28,4052.31,3543.59,4408.21,4461.54,4735.38,4493.85,4539.49,4351.28,4292.82,3986.67,1654,1691,3.791,0,0,0,0,1,0,
102,4455.9,4014.87,4326.15,4152.31,4047.69,3544.1,4405.13,4460,4735.9,4483.08,4536.92,4349.23,4289.74,3987.18,1654,1692,3.799,0,0,0,0,1,0,
103,4449.23,4008.21,4326.67,4151.79,4044.1,3539.49,4398.97,4452.82,4728.72,4473.33,4530.26,4350.77,4281.03,3982.56,1654,1691,3.805,0,0,0,0,1,0,
104,4450.26,4000,4328.72,4150.77,4043.08,3532.82,4392.31,4443.59,4718.97,4478.97,4530.77,4349.74,4278.46,3980.51,1654,1692,3.814,0,0,0,0,1,0,
105,4460.51,4008.21,4334.36,4151.79,4043.08,3536.41,4395.9,4446.67,4725.13,4489.23,4538.97,4356.41,4291.28,3989.74,1654,1691,3.822,0,0,0,0,1,0,
106,4462.56,4011.28,4335.9,4153.33,4047.69,3541.54,4398.46,4450.77,4734.36,4483.08,4542.05,4364.1,4296.92,3994.36,1654,1691,3.83,0,0,0,0,1,0,
107,4458.97,4004.1,4332.31,4153.85,4053.85,3540,4394.87,4446.15,4730.77,4478.46,4538.97,4358.46,4289.74,3990.77,1654,1689,3.838,0,0,0,0,1,0,
108,4461.03,4007.18,4337.44,4153.85,4050.77,3541.03,4398.46,4451.79,4730.26,4487.18,4540,4356.41,4291.79,3993.33,1653,1691,3.846,0,0,0,0,1,0,
109,4462.56,4008.72,4342.56,4154.36,4044.1,3544.1,4407.18,4463.08,4736.92,4485.64,4541.03,4363.08,4293.33,3994.36,1655,1690,3.853,0,0,0,0,1,0,
110,4457.44,3994.87,4336.92,4151.28,4043.08,3541.03,4404.62,4460.51,4735.9,4474.36,4537.44,4360.51,4282.05,3987.69,1654,1689,3.861,0,0,0,0,1,0,
111,4456.92,3994.36,4332.82,4150.77,4044.1,3539.49,4402.05,4456.92,4734.87,4482.56,4537.44,4357.44,4282.05,3987.69,1655,1690,3.869,0,0,0,0,1,0,
112,4459.49,4006.15,4335.9,4152.82,4043.59,3542.05,4404.62,4461.54,4737.44,4498.97,4539.49,4360,4292.82,3991.79,1656,1690,3.877,0,0,0,0,1,0,
113,4457.44,3996.41,4335.9,4148.21,4043.59,3541.03,4401.03,4460.51,4733.33,4491.79,4536.92,4355.9,4288.21,3987.69,1656,1691,3.891,0,0,0,0,1,0,
114,4455.9,3989.23,4333.85,4146.67,4045.13,3540,4396.41,4455.38,4726.15,4476.92,4536.41,4351.79,4278.46,3987.18,1657,1690,3.895,0,0,0,0,1,0,
115,4456.41,3998.46,4333.33,4150.26,4046.67,3539.49,4396.41,4448.21,4723.08,4473.33,4536.41,4354.87,4279.49,3989.23,1657,1691,3.901,0,0,0,0,1,0,
116,4452.31,3995.38,4329.74,4145.64,4046.67,3538.46,4396.41,4444.1,4723.59,4471.79,4527.18,4352.31,4278.46,3982.56,1656,1690,3.907,0,0,0,0,1,0,
117,4451.79,3990.26,4328.72,4143.08,4048.72,3541.03,4397.44,4448.72,4722.56,4470.77,4523.59,4349.74,4276.41,3975.9,1657,1691,3.916,0,0,0,0,1,0,
118,4454.36,3998.97,4328.72,4151.28,4051.28,3543.08,4399.49,4449.23,4720,4472.82,4528.21,4352.31,4280.51,3975.9,1658,1689,3.924,0,0,0,0,1,0,
119,4454.87,4003.08,4327.18,4154.36,4052.82,3540,4397.44,4443.59,4719.49,4474.87,4528.72,4350.77,4280,3978.97,1656,1691,3.932,0,0,0,0,1,0,
120,4456.41,4000.51,4329.74,4150.26,4047.69,3538.97,4394.87,4444.1,4720.51,4475.9,4531.79,4351.28,4276.41,3983.59,1657,1690,3.939,0,0,0,0,1,0,
121,4458.97,4001.54,4330.77,4152.31,4043.08,3541.03,4396.92,4447.69,4722.05,4476.41,4536.92,4354.87,4278.97,3983.59,1656,1690,3.947,0,0,0,0,1,0,
122,4457.95,4003.59,4327.69,4152.82,4048.21,3541.03,4399.49,4448.72,4727.18,4477.95,4536.41,4351.79,4282.05,3979.49,1656,1691,3.955,0,0,0,0,1,0,
123,4457.44,4004.1,4326.15,4150.26,4053.33,3539.49,4395.38,4447.69,4726.15,4478.46,4534.36,4348.21,4279.49,3984.62,1656,1689,3.962,0,0,0,0,1,0,
124,4458.46,4002.56,4326.67,4150.77,4051.28,3539.49,4388.21,4445.13,4720,4476.41,4532.82,4350.26,4277.44,3989.23,1655,1692,3.971,0,0,0,0,1,0,
125,4457.44,4002.05,4329.23,4152.82,4048.21,3540.51,4390.77,4445.64,4726.15,4472.82,4529.74,4351.28,4278.46,3983.08,1656,1691,3.978,0,0,0,0,1,0,
126,4457.95,4004.62,4334.36,4153.33,4052.31,3542.56,4398.46,4450.26,4733.33,4476.41,4530.77,4349.74,4280,3980,1655,1691,3.986,0,0,0,0,1,0,
127,4459.49,4005.64,4334.87,4152.31,4058.46,3543.08,4398.46,4449.23,4727.69,4478.46,4536.92,4354.36,4280.51,3984.62,1656,1692,3.995,0,0,0,0,1,0,
128,4458.97,4002.56,4332.82,4151.28,4055.9,3542.56,4395.38,4445.64,4723.59,4475.9,4537.44,4358.46,4282.05,3983.08,1655,1692,4.002,0,0,0,0,1,0,
0,4454.36,3997.44,4333.85,4150.77,4048.72,3542.05,4395.38,4446.67,4726.15,4475.9,4529.23,4352.31,4280.51,3973.85,1656,1691,4.009,0,0,0,0,1,0,
1,4453.33,3998.46,4333.85,4151.79,4049.23,3540.51,4395.38,4449.23,4727.69,4477.95,4527.18,4347.69,4275.9,3974.36,1654,1692,4.018,0,0,0,0,1,0,
2,4459.49,4010.26,4337.44,4153.85,4052.31,3541.54,4396.41,4455.38,4733.33,4477.44,4536.92,4354.87,4277.44,3985.64,1655,1692,4.026,0,0,0,0,1,0,
3,4462.05,4015.38,4343.08,4155.38,4054.87,3543.59,4394.36,4456.41,4733.33,4476.41,4539.49,4360,4281.54,3989.74,1655,1692,4.033,0,0,0,0,1,0,
4,4461.54,4008.72,4343.08,4156.41,4058.46,3542.05,4388.21,4445.64,4722.05,4477.44,4534.87,4358.97,4278.46,3989.23,1655,1691,4.041,0,0,0,0,1,0,
5,4463.08,4006.67,4342.56,4156.92,4061.03,3538.46,4383.59,4440,4717.44,4478.46,4536.41,4358.46,4278.46,3990.77,1655,1692,4.049,0,0,0,0,1,0,
6,4463.59,4008.21,4341.54,4155.9,4062.56,3537.95,4382.05,4443.59,4718.46,4476.41,4537.44,4358.46,4280,3989.23,1655,1691,4.057,0,0,0,0,1,0,
7,4467.69,4010.26,4342.05,4157.44,4060.51,3541.54,4385.64,4445.13,4721.03,4480,4536.92,4361.54,4279.49,3991.28,1654,1692,4.065,0,0,0,0,1,0,
8,4471.79,4013.85,4344.62,4157.95,4052.82,3544.62,4394.87,4446.67,4727.18,4490.26,4540,4366.15,4284.62,3997.44,1655,1691,4.072,0,0,0,0,1,0,
9,4466.15,4012.82,4341.03,4154.87,4050.77,3544.1,4396.92,4451.28,4728.21,4489.74,4541.03,4362.05,4288.72,3995.38,1654,1691,4.08,0,0,0,0,1,0,
10,4456.41,4005.13,4331.79,4151.79,4053.85,3540,4390.77,4450.26,4723.08,4477.44,4538.97,4352.82,4282.56,3987.69,1655,1691,4.088,0,0,0,0,1,0,
11,4456.41,4003.59,4334.87,4150.26,4051.79,3538.97,4390.26,4448.72,4722.56,4479.49,4537.95,4354.36,4280,3986.67,1654,1691,4.096,0,0,0,0,1,0,
12,4468.21,4010.26,4345.13,4152.82,4049.74,3541.03,4392.82,4455.38,4727.69,4493.85,4546.67,4366.15,4291.79,3994.87,1655,1692,4.104,0,0,0,0,1,0,
13,4472.31,4013.85,4346.15,4156.92,4054.36,3541.03,4388.72,4455.38,4726.67,4495.9,4554.36,4369.74,4297.95,4003.59,1655,1691,4.11,0,0,0,0,1,0,
14,4463.59,4012.31,4342.56,4156.41,4061.54,3539.49,4388.21,4445.64,4721.03,4485.13,4545.13,4362.05,4290.26,4001.03,1653,1692,4.119,0,0,0,0,1,0,
15,4457.44,4011.79,4336.92,4153.85,4069.74,3542.05,4393.85,4442.05,4718.97,4478.97,4532.82,4355.38,4281.54,3987.69,1655,1691,4.127,0,0,0,0,1,0,
16,4460.51,4009.74,4327.69,4154.87,4067.18,3546.67,4394.87,4443.59,4718.97,4475.38,4533.85,4352.31,4277.95,3979.49,1654,1691,4.135,0,0,0,0,1,0,
17,4458.97,4004.62,4325.13,4153.33,4052.31,3545.64,4392.31,4443.59,4719.49,4472.31,4535.9,4347.18,4277.44,3981.54,1655,1691,4.144,0,0,0,0,1,0,
18,4457.95,4005.64,4336.92,4151.79,4050.77,3550.26,4396.41,4451.79,4728.21,4480.51,4534.36,4351.79,4277.44,3988.21,1655,1691,4.15,0,0,0,0,1,0,
19,4467.69,4014.87,4343.59,4158.97,4068.21,3559.49,4402.56,4463.59,4736.41,4492.31,4538.97,4361.54,4281.54,3991.79,1655,1690,4.157,0,0,0,0,1,0,
20,4467.69,4014.87,4335.9,4160,4070.26,3554.87,4400.51,4460.51,4730.77,4492.82,4542.05,4360.51,4283.08,3988.72,1654,1691,4.165,0,0,0,0,1,0,
21,4459.49,4005.64,4331.79,4153.33,4056.92,3544.1,4394.36,4455.9,4724.62,4489.23,4537.95,4353.85,4282.56,3987.69,1656,1690,4.173,0,0,0,0,1,0,
22,4459.49,4004.62,4335.38,4152.31,4062.05,3543.08,4393.33,4460.51,4728.72,4490.26,4538.97,4356.41,4284.62,3989.23,1655,1690,4.182,0,0,0,0,1,0,
23,4463.08,4011.79,4336.41,4154.87,4070.26,3545.64,4395.38,4457.95,4729.23,4490.77,4543.08,4358.46,4286.67,3988.21,1655,1692,4.189,0,0,0,0,1,0,
24,4462.05,4016.92,4332.31,4155.38,4062.05,3543.59,4395.9,4449.23,4722.56,4491.28,4540,4353.33,4282.05,3988.21,1656,1691,4.196,0,0,0,0,1,0,
25,4460.51,4014.87,4333.85,4154.87,4056.41,3542.05,4389.74,4445.64,4718.97,4486.67,4537.95,4350.26,4278.97,3987.18,1655,1692,4.205,0,0,0,0,1,0,
26,4460.51,4009.23,4334.87,4154.87,4064.62,3540,4381.03,4443.08,4716.92,4475.38,4537.44,4351.28,4278.46,3981.54,1656,1689,4.212,0,0,0,0,1,0,
27,4456.92,4004.62,4329.74,4153.33,4068.72,3539.49,4382.56,4441.54,4710.77,4472.82,4528.21,4349.23,4272.31,3978.97,1655,1689,4.22,0,0,0,0,1,0,
28,4455.38,4004.62,4327.18,4152.31,4063.59,3542.05,4391.28,4440.51,4703.59,4474.36,4520.51,4346.15,4266.67,3976.41,1656,1689,4.229,0,0,0,0,1,0,
29,4454.36,4007.18,4332.31,4151.79,4061.03,3542.56,4395.38,4439.49,4708.72,4473.85,4528.72,4348.21,4271.79,3975.9,1656,1690,4.236,0,0,0,0,1,0,
30,4462.05,4010.77,4340.51,4153.85,4063.08,3546.15,4397.95,4447.18,4719.49,4483.59,4540,4357.44,4280,3985.64,1657,1690,4.244,0,0,0,0,1,0,
31,4471.28,4014.87,4346.15,4158.46,4066.15,3554.87,4400,4458.97,4721.54,4491.28,4540,4364.62,4280.51,3994.87,1656,1690,4.251,0,0,0,0,1,0,
32,4466.15,4011.28,4345.64,4157.44,4070.26,3555.38,4396.92,4454.36,4718.46,4477.95,4535.38,4361.54,4274.87,3990.77,1656,1691,4.259,0,0,0,0,1,0,
33,4457.44,4003.59,4340,4153.33,4071.79,3545.64,4393.33,4445.64,4717.95,4468.72,4534.87,4355.9,4272.82,3984.1,1656,1689,4.267,0,0,0,0,1,0,
34,4463.59,4005.64,4341.54,4157.44,4067.18,3542.56,4394.87,4451.79,4721.03,4482.56,4537.95,4358.46,4276.41,3989.74,1655,1692,4.275,0,0,0,0,1,0,
35,4475.38,4016.41,4350.77,4166.67,4069.23,3547.69,4395.9,4461.54,4725.13,4495.38,4540.51,4365.64,4281.54,3997.44,1656,1691,4.282,0,0,0,0,1,0,
36,4476.41,4020,4351.28,4167.18,4074.36,3547.69,4390.26,4458.46,4724.1,4491.79,4538.97,4367.18,4281.54,3992.82,1654,1692,4.29,0,0,0,0,1,0,
37,4471.28,4012.31,4346.67,4164.1,4067.69,3540,4383.08,4448.21,4717.44,4483.59,4536.41,4364.62,4277.95,3985.13,1655,1693,4.298,0,0,0,0,1,0,
38,4471.79,4012.31,4350.77,4165.64,4062.05,3538.97,4385.13,4443.08,4716.92,4478.97,4536.92,4365.64,4278.97,3991.79,1654,1693,4.306,0,0,0,0,1,0,
39,4475.38,4015.38,4351.79,4160,4065.64,3542.56,4389.74,4442.56,4718.46,4476.92,4537.44,4366.15,4282.05,3998.46,1654,1693,4.315,0,0,0,0,1,0,
40,4470.77,4008.72,4340.51,4151.79,4062.05,3541.54,4387.69,4441.03,4714.87,4474.87,4533.33,4360.51,4280,3990.77,1653,1692,4.322,0,0,0,0,1,0,
41,4464.1,4006.67,4334.36,4154.36,4056.92,3548.72,4391.28,4442.56,4714.87,4476.41,4535.38,4355.9,4282.56,3988.72,1653,1693,4.329,0,0,0,0,1,0,
42,4463.08,4010.26,4335.38,4155.9,4063.08,3558.46,4399.49,4447.18,4720,4477.44,4536.41,4353.85,4293.33,3990.26,1653,1692,4.337,0,0,0,0,1,0,
43,4460.51,4005.64,4329.23,4151.28,4067.18,3555.38,4398.46,4446.15,4718.97,4476.41,4527.18,4349.23,4295.9,3984.62,1653,1692,4.345,0,0,0,0,1,0,
44,4456.92,4002.56,4328.72,4150.77,4062.05,3551.79,4395.9,4444.1,4717.95,4477.44,4525.13,4347.18,4292.31,3983.59,1653,1692,4.354,0,0,0,0,1,0,
45,4460,4006.67,4337.44,4152.82,4054.87,3556.41,4399.49,4448.21,4720.51,4479.49,4535.9,4350.26,4298.46,3988.72,1652,1692,4.361,0,0,0,0,1,0,
46,4463.08,4007.69,4338.46,4153.33,4052.82,3557.44,4400,4448.72,4721.54,4478.97,4538.97,4352.31,4303.59,3987.69,1654,1691,4.369,0,0,0,0,1,0,
47,4461.03,4006.15,4336.41,4155.9,4056.92,3549.23,4395.38,4444.62,4720,4475.38,4533.85,4349.23,4297.95,3986.15,1653,1693,4.376,0,0,0,0,1,0,
48,4464.1,4009.23,4341.03,4155.9,4061.03,3546.67,4392.82,4448.21,4720.51,4478.46,4535.38,4350.77,4298.46,3989.74,1655,1693,4.384,0,0,0,0,1,0,
49,4471.79,4012.82,4345.64,4155.38,4054.87,3553.85,4390.26,4456.41,4724.1,4490.77,4538.97,4361.54,4308.72,3992.82,1654,1692,4.392,0,0,0,0,1,0,
50,4475.9,4014.87,4348.21,4160,4051.28,3559.49,4389.74,4460,4728.21,4497.44,4541.54,4369.74,4314.36,3997.95,1655,1692,4.4,0,0,0,0,1,0,
51,4475.9,4011.79,4352.31,4164.1,4058.46,3554.36,4387.18,4457.95,4727.18,4493.33,4542.56,4366.67,4312.31,4004.62,1655,1691,4.409,0,0,0,0,1,0,
52,4477.44,4012.82,4352.82,4166.67,4062.05,3554.87,4383.59,4455.38,4723.08,4486.67,4541.03,4365.64,4312.31,4005.64,1656,1692,4.416,0,0,0,0,1,0,
53,4476.92,4016.41,4347.69,4165.13,4056.92,3558.46,4382.05,4452.31,4721.54,4483.08,4542.56,4369.23,4309.74,3999.49,1655,1691,4.424,0,0,0,0,1,0,
54,4471.79,4008.21,4342.05,4156.41,4053.33,3546.15,4377.44,4445.13,4718.46,4479.49,4534.36,4363.59,4298.97,3990.26,1656,1691,4.431,0,0,0,0,1,0,
55,4470.26,3998.97,4338.46,4151.28,4050.26,3538.46,4373.33,4444.62,4714.87,4470.77,4525.13,4355.38,4290.26,3985.64,1656,1690,4.439,0,0,0,0,1,0,
56,4473.33,4006.67,4344.1,4155.38,4046.15,3550.26,4382.05,4455.38,4719.49,4470.26,4533.33,4360.51,4293.85,3992.82,1655,1690,4.447,0,0,0,0,1,0,
57,4474.87,4013.33,4350.26,4156.92,4049.74,3560.51,4391.79,4462.56,4729.23,4487.18,4542.56,4367.18,4302.05,3997.95,1656,1689,4.455,0,0,0,0,1,0,
58,4472.31,4006.67,4348.21,4153.33,4054.87,3556.41,4386.15,4461.03,4731.79,4497.44,4540,4365.64,4303.08,3992.31,1655,1689,4.462,0,0,0,0,1,0,
59,4473.33,4008.21,4349.74,4154.36,4052.31,3555.38,4380.51,4461.03,4732.31,4490.26,4539.49,4365.64,4306.15,3992.31,1655,1689,4.471,0,0,0,0,1,0,
60,4476.41,4015.9,4351.79,4156.92,4049.23,3559.49,4383.59,4462.05,4735.9,4490.77,4543.59,4368.72,4312.31,3996.92,1656,1689,4.479,0,0,0,0,1,0,
61,4473.85,4011.79,4345.13,4154.87,4051.28,3556.92,4383.08,4459.49,4731.79,4491.28,4538.97,4364.62,4308.21,3991.79,1654,1689,4.486,0,0,0,0,1,0,
62,4472.82,4011.28,4343.08,4157.95,4057.44,3554.36,4376.41,4457.95,4723.08,4482.56,4540,4366.15,4303.08,3991.79,1655,1688,4.495,0,0,0,0,1,0,
63,4476.41,4021.03,4354.87,4166.15,4058.97,3555.38,4371.28,4459.49,4722.56,4485.64,4549.74,4374.87,4310.26,4001.54,1655,1688,4.502,0,0,0,0,1,0,
64,4478.97,4017.95,4354.87,4170.26,4051.79,3555.9,4371.79,4457.44,4722.05,4496.41,4546.67,4373.85,4312.31,4000.51,1655,1688,4.51,0,0,0,0,1,0,
65,4475.38,4006.15,4344.1,4165.64,4043.59,3552.82,4372.31,4451.28,4716.41,4491.28,4538.46,4364.1,4301.03,3990.77,1656,1687,4.517,0,0,0,0,1,0,
66,4466.15,4003.08,4340.51,4157.44,4045.13,3544.1,4366.67,4443.59,4715.9,4477.44,4533.85,4356.92,4293.33,3985.64,1654,1690,4.525,0,0,0,0,1,0,
67,4459.49,4005.13,4341.03,4157.95,4052.82,3541.03,4364.1,4443.59,4718.46,4468.72,4527.18,4355.38,4291.28,3984.62,1656,1690,4.534,0,0,0,0,1,0,
68,4465.64,4006.67,4342.56,4166.67,4053.85,3550.26,4370.26,4449.74,4716.92,4473.33,4527.18,4358.46,4290.77,3987.18,1654,1692,4.541,0,0,0,0,1,0,
69,4473.33,4007.69,4346.15,4166.67,4045.13,3556.41,4374.36,4447.69,4716.92,4486.67,4537.44,4365.13,4292.82,3989.74,1655,1692,4.549,0,0,0,0,1,0,
70,4472.82,4007.18,4351.28,4162.05,4043.59,3554.36,4373.85,4448.21,4723.08,4487.69,4539.49,4365.64,4295.38,3990.26,1655,1692,4.556,0,0,0,0,1,0,
71,4473.85,4007.18,4350.77,4164.1,4051.79,3556.41,4374.36,4453.85,4725.13,4483.59,4535.9,4364.1,4297.44,3990.26,1654,1693,4.564,0,0,0,0,1,0,
72,4474.36,4008.21,4344.62,4164.1,4052.31,3554.36,4370.26,4451.28,4721.03,4489.23,4538.97,4363.59,4296.92,3989.74,1654,1693,4.572,0,0,0,0,1,0,
73,4468.21,4005.64,4340.51,4157.95,4043.59,3545.13,4364.1,4444.62,4718.46,4491.79,4537.95,4360,4294.87,3988.72,1654,1694,4.58,0,0,0,0,1,0,
74,4461.54,4002.56,4338.97,4153.85,4039.49,3542.05,4364.1,4444.62,4720,4485.64,4536.41,4355.38,4292.82,3987.18,1654,1693,4.587,0,0,0,0,1,0,
75,4464.1,4004.1,4339.49,4156.92,4046.15,3542.56,4364.1,4445.64,4723.08,4488.21,4539.49,4360.51,4293.33,3988.21,1653,1695,4.596,0,0,0,0,1,0,
76,4471.79,4006.15,4344.1,4165.13,4054.36,3546.67,4363.08,4447.18,4726.15,4494.87,4540.51,4365.64,4295.38,3990.77,1655,1693,4.604,0,0,0,0,1,0,
77,4472.82,4006.67,4345.64,4170.77,4050.26,3554.87,4367.18,4452.31,4729.23,4481.03,4540,4361.54,4296.41,3991.28,1653,1694,4.611,0,0,0,0,1,0,
78,4467.69,4005.13,4342.05,4165.13,4042.05,3556.41,4370.26,4450.26,4728.72,4467.69,4538.46,4356.92,4296.41,3989.23,1655,1695,4.619,0,0,0,0,1,0,
79,4465.13,4004.1,4340,4155.9,4046.67,3552.31,4368.72,4445.13,4720.51,4480,4535.9,4357.95,4293.33,3987.18,1653,1694,4.627,0,0,0,0,1,0,
80,4464.62,4004.1,4341.54,4157.44,4050.26,3553.85,4367.18,4443.59,4713.85,4494.36,4534.87,4356.92,4291.28,3986.67,1654,1696,4.634,0,0,0,0,1,0,
81,4464.62,4004.1,4341.54,4165.64,4043.59,3555.9,4367.18,4443.59,4720.51,4491.28,4537.44,4355.9,4293.33,3986.67,1654,1694,4.643,0,0,0,0,1,0,
82,4470.77,4005.13,4341.54,4168.21,4044.1,3554.36,4366.67,4449.74,4732.82,4489.23,4540.51,4361.54,4296.92,3987.69,1654,1694,4.65,0,0,0,0,1,0,
83,4475.9,4007.69,4345.64,4167.18,4052.31,3554.36,4365.64,4457.44,4735.38,4495.38,4540,4368.21,4301.03,3993.33,1655,1694,4.659,0,0,0,0,1,0,
84,4474.87,4008.72,4349.23,4169.23,4050.26,3554.36,4366.15,4455.9,4732.82,4492.82,4539.49,4367.69,4301.54,3997.95,1655,1694,4.666,0,0,0,0,1,0,
85,4473.33,4005.13,4345.13,4167.18,4046.15,3552.31,4366.67,4453.85,4732.82,4488.21,4538.97,4365.64,4295.38,3993.33,1655,1692,4.674,0,0,0,0,1,0,
86,4472.82,4003.59,4340,4164.1,4050.26,3553.85,4366.15,4458.46,4733.33,4493.85,4538.46,4365.64,4294.36,3990.26,1655,1694,4.681,0,0,0,0,1,0,
87,4474.87,4007.18,4344.1,4167.18,4053.33,3557.44,4370.26,4465.13,4737.95,4498.46,4543.08,4367.18,4300.51,3995.9,1656,1693,4.69,0,0,0,0,1,0,
88,4473.85,4008.72,4349.74,4168.72,4051.28,3558.97,4375.38,4466.67,4742.56,4495.38,4547.18,4367.69,4300,3999.49,1654,1693,4.697,0,0,0,0,1,0,
89,4465.64,4005.64,4343.59,4168.21,4049.74,3558.97,4370.77,4460.51,4738.46,4494.87,4540,4363.59,4296.41,3993.85,1655,1693,4.705,0,0,0,0,1,0,
90,4456.92,4003.08,4333.33,4164.1,4050.26,3554.36,4360,4448.21,4726.67,4490.77,4532.31,4351.79,4295.9,3981.03,1654,1692,4.714,0,0,0,0,1,0,
91,4457.95,4004.1,4331.28,4161.03,4050.77,3546.15,4355.9,4441.54,4719.49,4477.44,4531.79,4346.15,4293.85,3975.9,1653,1692,4.72,0,0,0,0,1,0,
92,4462.05,4004.62,4336.41,4164.1,4052.82,3545.64,4356.41,4436.92,4715.9,4475.9,4534.87,4353.33,4291.79,3983.08,1654,1691,4.729,0,0,0,0,1,0,
93,4460,4003.08,4339.49,4166.67,4053.85,3552.82,4358.46,4428.72,4714.36,4487.69,4535.9,4356.92,4292.82,3986.15,1653,1692,4.737,0,0,0,0,1,0,
94,4461.54,4004.1,4338.97,4167.18,4049.23,3556.41,4360.51,4431.79,4714.87,4489.23,4536.92,4355.38,4295.9,3984.1,1654,1690,4.744,0,0,0,0,1,0,
95,4470.77,4008.21,4342.05,4167.69,4042.05,3552.82,4360,4442.05,4716.92,4489.23,4540.51,4362.56,4297.44,3988.21,1654,1691,4.752,0,0,0,0,1,0,
96,4477.44,4008.72,4346.15,4167.18,4042.05,3550.26,4360.51,4448.21,4725.13,4496.41,4541.54,4369.23,4296.92,3993.85,1654,1691,4.76,0,0,0,0,1,0,
97,4473.85,4005.64,4346.15,4166.15,4049.74,3553.85,4366.67,4455.38,4731.79,4489.23,4537.44,4364.1,4293.85,3989.74,1654,1691,4.767,0,0,0,0,1,0,
98,4464.62,4006.67,4344.1,4168.21,4052.82,3556.41,4368.21,4459.49,4728.72,4478.97,4537.95,4359.49,4289.23,3984.62,1655,1690,4.775,0,0,0,0,1,0,
99,4461.03,4007.18,4341.03,4168.21,4050.26,3550.77,4361.54,4450.26,4722.05,4487.69,4536.92,4356.92,4283.08,3981.03,1654,1691,4.783,0,0,0,0,1,0,
100,4460.51,4003.59,4340,4165.64,4050.26,3542.05,4354.36,4441.03,4716.92,4491.79,4526.67,4350.26,4277.44,3974.87,1655,1691,4.791,0,0,0,0,1,0,
101,4460.51,4006.15,4342.05,4167.69,4053.33,3542.56,4352.31,4444.1,4714.87,4478.97,4521.03,4350.77,4276.41,3974.36,1656,1690,4.799,0,0,0,0,1,0,
102,4460.51,4006.67,4337.44,4166.67,4052.31,3545.13,4354.36,4442.05,4715.38,4472.31,4524.62,4352.82,4281.54,3976.41,1655,1691,4.806,0,0,0,0,1,0,
103,4455.9,3998.46,4326.67,4156.92,4045.64,3542.56,4355.38,4430.77,4712.31,4474.36,4523.08,4344.1,4278.46,3970.26,1656,1690,4.814,0,0,0,0,1,0,
104,4446.67,3994.36,4324.1,4151.79,4041.03,3540,4352.82,4429.23,4709.23,4474.36,4518.46,4337.44,4266.15,3957.44,1656,1691,4.822,0,0,0,0,1,0,
105,4442.56,3992.82,4328.72,4155.9,4048.21,3542.56,4357.95,4440,4716.92,4476.92,4521.54,4341.03,4269.23,3955.9,1657,1689,4.83,0,0,0,0,1,0,
106,4445.64,3991.79,4326.67,4156.92,4053.33,3544.62,4364.1,4447.18,4724.1,4476.41,4524.62,4343.08,4281.03,3964.1,1656,1690,4.838,0,0,0,0,1,0,
107,4444.62,3994.36,4324.1,4152.82,4042.05,3543.08,4360,4446.15,4720,4473.85,4522.56,4338.97,4276.92,3967.69,1657,1690,4.846,0,0,0,0,1,0,
108,4443.59,3992.82,4324.62,4153.85,4040.51,3541.54,4354.36,4445.64,4717.95,4481.03,4523.08,4337.95,4271.28,3968.72,1656,1690,4.853,0,0,0,0,1,0,
109,4447.69,3991.28,4325.13,4156.92,4055.9,3542.05,4357.95,4446.67,4723.08,4489.23,4525.13,4343.59,4278.46,3969.23,1656,1691,4.861,0,0,0,0,1,0,
110,4451.28,3998.46,4325.64,4156.92,4057.44,3549.74,4366.15,4446.67,4725.13,4491.28,4526.15,4348.72,4282.05,3969.74,1655,1691,4.869,0,0,0,0,1,0,
111,4449.74,4002.56,4327.18,4155.38,4047.18,3555.38,4367.69,4445.13,4721.03,4486.67,4524.1,4344.1,4277.95,3967.69,1656,1691,4.878,0,0,0,0,1,0,
112,4448.72,3995.9,4325.64,4154.87,4053.85,3547.18,4362.05,4441.03,4716.41,4476.92,4521.03,4338.46,4276.41,3966.15,1655,1691,4.885,0,0,0,0,1,0,
113,4454.36,3998.46,4326.15,4156.92,4060.51,3541.54,4360.51,4440.51,4717.44,4476.92,4524.62,4343.59,4276.92,3970.26,1656,1691,4.892,0,0,0,0,1,0,
114,4461.03,4007.18,4334.87,4163.08,4051.28,3548.72,4367.18,4448.21,4725.64,4488.72,4535.38,4353.33,4281.03,3974.87,1655,1691,4.9,0,0,0,0,1,0,
115,4460.51,4007.18,4343.08,4168.72,4050.77,3551.28,4368.21,4454.87,4731.28,4492.82,4540,4358.46,4284.1,3975.38,1655,1691,4.908,0,0,0,0,1,0,
116,4458.97,3997.44,4342.56,4166.67,4058.97,3542.05,4364.62,4450.77,4725.64,4489.23,4533.85,4361.54,4281.54,3975.38,1655,1692,4.916,0,0,0,0,1,0,
117,4459.49,3993.85,4341.03,4166.15,4054.87,3539.49,4364.1,4445.64,4718.97,4489.74,4533.33,4362.56,4279.49,3977.44,1655,1691,4.924,0,0,0,0,1,0,
118,4460.51,4001.54,4343.08,4168.21,4046.67,3548.21,4365.64,4445.64,4720.51,4490.26,4536.41,4360,4282.05,3977.44,1654,1692,4.932,0,0,0,0,1,0,
119,4460,4004.1,4341.54,4161.03,4050.77,3556.41,4365.13,4445.13,4721.54,4487.18,4531.28,4356.41,4282.05,3973.85,1655,1692,4.939,0,0,0,0,1,0,
120,4460,4000,4335.9,4157.44,4058.46,3555.38,4364.62,4443.08,4720,4480.51,4523.59,4351.28,4275.9,3971.28,1654,1691,4.947,0,0,0,0,1,0,
121,4459.49,4002.05,4332.82,4166.15,4063.59,3551.28,4364.62,4443.59,4721.03,4472.82,4523.59,4348.21,4273.33,3971.79,1655,1692,4.955,0,0,0,0,1,0,
122,4458.97,4007.69,4335.38,4169.74,4067.69,3554.87,4364.62,4443.08,4722.05,4477.95,4529.74,4348.72,4277.44,3974.36,1656,1691,4.964,0,0,0,0,1,0,
123,4458.46,4005.13,4335.9,4165.64,4062.05,3556.41,4365.13,4444.1,4721.54,4488.72,4529.23,4349.74,4277.95,3973.33,1655,1692,4.971,0,0,0,0,1,0,
124,4457.95,3998.97,4332.82,4164.1,4052.82,3546.15,4363.59,4445.13,4721.54,4489.23,4522.05,4346.15,4273.85,3968.72,1655,1691,4.979,0,0,0,0,1,0,
125,4458.46,3998.46,4335.9,4164.62,4052.31,3545.13,4364.62,4445.64,4723.59,4487.69,4524.1,4350.26,4275.9,3970.26,1655,1691,4.986,0,0,0,0,1,0,
126,4461.54,4004.1,4343.08,4166.15,4055.9,3555.38,4370.26,4449.23,4728.21,4489.23,4534.87,4361.03,4283.08,3979.49,1655,1691,4.994,0,0,0,0,1,0,
127,4467.69,4006.15,4342.56,4169.23,4062.56,3557.95,4373.33,4455.9,4732.82,4495.9,4539.49,4362.05,4285.64,3984.62,1655,1691,5.002,0,0,0,0,1,0,
128,4472.31,4003.08,4338.46,4169.74,4070.77,3556.41,4373.33,4461.03,4736.41,4504.62,4538.97,4358.46,4291.28,3981.54,1655,1691,5.01,0,0,0,0,1,0,
0,4467.18,4005.13,4338.46,4168.72,4069.74,3558.97,4374.36,4456.92,4736.41,4501.54,4539.49,4357.95,4295.38,3978.46,1654,1691,5.018,0,0,0,0,1,0,
1,4459.49,4005.64,4337.44,4168.21,4064.1,3557.44,4371.28,4450.26,4733.85,4491.28,4536.92,4354.36,4286.67,3975.9,1655,1691,5.025,0,0,0,0,1,0,
2,4457.95,4003.59,4330.77,4168.21,4070.77,3556.92,4370.77,4452.82,4734.36,4492.82,4536.41,4349.23,4281.03,3973.33,1654,1690,5.034,0,0,0,0,1,0,
3,4460.51,4008.21,4327.69,4169.23,4075.9,3561.54,4375.9,4460,4739.49,4506.15,4537.44,4348.72,4288.21,3976.41,1655,1692,5.041,0,0,0,0,1,0,
4,4466.67,4017.95,4334.36,4171.28,4068.21,3561.03,4380,4461.03,4740,4509.74,4537.95,4352.82,4294.36,3983.59,1655,1691,5.049,0,0,0,0,1,0,
5,4474.36,4020.51,4339.49,4173.33,4067.69,3557.95,4378.46,4460.51,4736.92,4499.49,4538.97,4358.46,4290.26,3986.15,1654,1692,5.057,0,0,0,0,1,0,
6,4475.38,4015.9,4336.92,4171.79,4067.69,3555.9,4373.33,4460,4734.87,4488.21,4537.95,4356.92,4282.05,3980.51,1655,1692,5.065,0,0,0,0,1,0,
7,4470.26,4011.79,4334.36,4170.26,4064.1,3554.36,4369.74,4456.41,4730.26,4488.21,4533.33,4350.77,4277.44,3977.44,1654,1692,5.072,0,0,0,0,1,0,
8,4467.69,4009.74,4334.87,4169.74,4068.72,3555.9,4375.38,4460,4728.21,4494.36,4535.9,4356.41,4280.51,3985.13,1655,1693,5.08,0,0,0,0,1,0,
9,4465.64,4007.18,4334.36,4169.74,4070.77,3558.46,4380,4458.97,4729.23,4493.33,4537.44,4359.49,4283.08,3986.15,1655,1692,5.089,0,0,0,0,1,0,
10,4461.54,4004.1,4333.33,4168.72,4063.08,3557.95,4373.85,4446.15,4726.15,4489.74,4526.67,4351.79,4277.44,3975.9,1654,1693,5.096,0,0,0,0,1,0,
11,4462.05,4005.64,4334.87,4168.21,4066.15,3562.05,4374.87,4446.67,4727.69,4491.28,4526.15,4353.85,4276.92,3975.38,1654,1692,5.104,0,0,0,0,1,0,
12,4462.56,4004.1,4335.9,4167.18,4070.26,3563.59,4382.56,4458.46,4732.82,4489.74,4535.38,4358.46,4278.97,3980,1655,1692,5.111,0,0,0,0,1,0,
13,4458.46,3995.9,4332.82,4165.13,4059.49,3557.44,4382.56,4461.54,4734.36,4489.23,4534.87,4355.38,4277.95,3977.44,1655,1691,5.119,0,0,0,0,1,0,
14,4463.59,4000.51,4336.92,4167.18,4061.03,3563.59,4381.54,4460,4743.59,4501.03,4535.9,4358.97,4285.64,3981.03,1654,1693,5.127,0,0,0,0,1,0,
15,4474.36,4010.26,4343.08,4170.26,4076.92,3573.33,4385.13,4463.08,4750.26,4512.82,4543.08,4366.67,4295.38,3990.26,1655,1691,5.135,0,0,0,0,1,0,
16,4474.87,4011.28,4342.05,4171.28,4078.46,3562.56,4381.54,4463.59,4741.03,4510.77,4545.64,4366.15,4294.87,3991.28,1654,1692,5.143,0,0,0,0,1,0,
17,4471.79,4012.82,4341.54,4174.36,4072.31,3554.36,4375.38,4461.54,4734.87,4506.15,4543.59,4365.13,4296.92,3988.72,1656,1692,5.151,0,0,0,0,1,0,
18,4476.41,4022.05,4343.59,4176.92,4071.79,3560,4372.31,4458.46,4739.49,4507.18,4542.56,4367.18,4304.62,3991.79,1654,1692,5.159,0,0,0,0,1,0,
19,4477.44,4023.08,4342.05,4173.33,4075.9,3557.95,4366.67,4457.44,4736.92,4508.72,4544.62,4365.64,4302.05,3995.38,1655,1693,5.166,0,0,0,0,1,0,
20,4474.87,4018.46,4340,4170.77,4080,3552.82,4364.62,4456.41,4733.85,4505.13,4548.21,4365.13,4295.38,3993.85,1655,1692,5.174,0,0,0,0,1,0,
21,4474.36,4020,4337.95,4171.79,4078.97,3557.95,4370.26,4449.74,4735.38,4496.41,4543.59,4364.62,4296.41,3988.72,1656,1692,5.182,0,0,0,0,1,0,
22,4472.82,4018.97,4332.82,4172.82,4075.9,3560.51,4373.33,4443.59,4729.74,4493.33,4534.87,4360,4292.82,3987.18,1656,1690,5.19,0,0,0,0,1,0,
23,4472.31,4013.85,4331.79,4172.31,4077.44,3557.44,4370.77,4443.59,4724.1,4493.85,4535.38,4354.36,4284.1,3987.69,1657,1691,5.197,0,0,0,0,1,0,
24,4473.33,4012.31,4337.44,4170.77,4075.38,3557.44,4371.28,4447.69,4728.72,4489.74,4537.95,4354.87,4284.62,3986.67,1657,1691,5.205,0,0,0,0,1,0,
25,4474.36,4014.87,4342.05,4169.74,4073.85,3558.97,4377.44,4454.87,4734.36,4489.23,4538.97,4362.56,4292.82,3987.69,1657,1692,5.213,0,0,0,0,1,0,
26,4476.92,4017.44,4343.08,4172.31,4080.51,3561.03,4381.54,4460,4733.33,4492.31,4540.51,4368.72,4294.87,3990.77,1657,1690,5.221,0,0,0,0,1,0,
27,4473.33,4013.85,4341.54,4171.28,4079.49,3564.1,4382.56,4458.97,4734.36,4491.79,4538.97,4363.59,4290.26,3988.21,1656,1692,5.229,0,0,0,0,1,0,
28,4462.56,4006.67,4336.92,4169.23,4070.77,3561.03,4381.54,4460,4737.95,4495.9,4537.95,4355.9,4288.21,3980,1657,1692,5.237,0,0,0,0,1,0,
29,4457.44,4003.08,4333.33,4167.69,4080,3557.95,4381.03,4461.03,4735.38,4506.15,4537.44,4354.36,4287.69,3973.33,1655,1691,5.244,0,0,0,0,1,0,
30,4464.62,4007.69,4335.9,4169.23,4093.85,3565.64,4384.62,4459.49,4734.87,4510.77,4538.46,4356.41,4289.23,3976.41,1656,1692,5.252,0,0,0,0,1,0,
31,4472.31,4015.9,4342.05,4178.46,4087.18,3573.85,4387.69,4461.03,4737.95,4503.08,4541.03,4357.95,4293.33,3984.1,1655,1691,5.26,0,0,0,0,1,0,
32,4474.87,4022.05,4338.46,4183.08,4079.49,3572.82,4384.62,4460.51,4735.9,4493.85,4539.49,4355.38,4292.82,3983.08,1654,1693,5.268,0,0,0,0,1,0,
33,4472.82,4020,4329.23,4173.33,4086.15,3567.18,4380.51,4457.95,4732.31,4494.87,4536.41,4351.79,4292.82,3977.44,1654,1693,5.276,0,0,0,0,1,0,
34,4463.59,4010.26,4324.62,4165.64,4080,3561.54,4381.03,4458.46,4734.87,4494.87,4536.41,4350.77,4292.82,3973.85,1653,1693,5.284,0,0,0,0,1,0,
35,4461.03,4005.13,4328.21,4168.72,4063.59,3556.92,4380.51,4458.97,4735.9,4487.18,4536.41,4350.26,4292.31,3974.87,1653,1693,5.291,0,0,0,0,1,0,
36,4472.31,4012.31,4336.92,4170.26,4067.18,3560,4381.03,4458.97,4732.82,4493.85,4538.46,4356.92,4301.03,3984.62,1653,1692,5.3,0,0,0,0,1,0,
37,4480,4018.97,4343.59,4168.72,4078.97,3563.59,4384.1,4458.46,4732.82,4506.67,4542.56,4367.18,4312.82,3990.26,1653,1692,5.307,0,0,0,0,1,0,
38,4476.92,4016.41,4344.1,4171.28,4077.95,3560.51,4382.56,4457.95,4733.33,4501.03,4542.05,4368.72,4309.23,3988.21,1653,1692,5.315,0,0,0,0,1,0,
39,4472.82,4010.77,4341.54,4171.28,4075.38,3562.56,4383.59,4458.46,4732.82,4491.79,4537.44,4363.08,4305.64,3986.67,1653,1691,5.323,0,0,0,0,1,0,
40,4475.9,4012.82,4344.62,4169.23,4077.44,3570.77,4389.23,4460.51,4734.87,4496.41,4541.54,4363.08,4316.92,3987.18,1653,1692,5.33,0,0,0,0,1,0,
41,4485.13,4021.54,4350.77,4173.85,4076.41,3573.85,4391.28,4462.56,4739.49,4505.64,4551.28,4370.26,4326.67,3992.82,1654,1691,5.339,0,0,0,0,1,0,
42,4493.33,4032.31,4351.79,4183.59,4069.74,3574.36,4389.74,4463.08,4739.49,4507.69,4553.33,4373.85,4329.74,4002.56,1655,1693,5.346,0,0,0,0,1,0,
43,4496.41,4040,4350.26,4186.67,4062.05,3571.79,4387.69,4461.54,4736.41,4506.15,4552.82,4369.23,4334.36,4005.64,1655,1692,5.354,0,0,0,0,1,0,
44,4501.54,4045.13,4347.18,4181.54,4058.46,3561.54,4379.49,4458.46,4734.36,4504.62,4553.85,4363.59,4335.9,4005.13,1656,1692,5.362,0,0,0,0,1,0,
45,4512.82,4054.87,4348.72,4186.67,4062.05,3554.87,4372.82,4458.46,4734.36,4504.1,4552.31,4367.69,4340,4015.9,1656,1691,5.37,0,0,0,0,1,0,
46,4529.74,4072.31,4357.95,4200,4066.67,3557.95,4376.92,4460,4736.41,4504.1,4558.46,4380,4353.33,4037.95,1655,1692,5.378,0,0,0,0,1,0,
47,4546.15,4085.64,4365.13,4204.1,4064.62,3557.95,4376.92,4457.44,4733.85,4501.03,4570.26,4387.18,4365.64,4053.33,1657,1691,5.385,0,0,0,0,1,0,
48,4556.92,4087.69,4364.62,4199.49,4060,3555.38,4373.85,4454.87,4731.79,4503.59,4571.28,4388.21,4371.28,4059.49,1655,1690,5.393,0,0,0,0,1,0,
49,4569.23,4094.36,4365.13,4204.62,4059.49,3558.46,4378.46,4455.38,4733.85,4504.1,4566.15,4393.33,4371.79,4070.26,1656,1691,5.401,0,0,0,0,1,0,
50,4581.54,4105.64,4368.72,4215.38,4060.51,3558.46,4382.56,4457.44,4730.26,4497.44,4567.69,4397.95,4369.23,4079.49,1656,1689,5.409,0,0,0,0,1,0,
51,4586.67,4108.21,4373.85,4216.41,4056.41,3557.44,4383.08,4456.92,4723.59,4497.44,4566.67,4396.41,4371.28,4078.46,1655,1690,5.416,0,0,0,0,1,0,
52,4595.9,4113.33,4380,4216.92,4055.9,3564.1,4388.72,4456.92,4726.67,4506.15,4566.67,4402.56,4378.46,4089.74,1655,1690,5.424,0,0,0,0,1,0,
53,4606.67,4123.59,4385.13,4221.54,4063.59,3573.85,4391.79,4458.97,4734.36,4506.67,4577.44,4414.87,4383.59,4109.23,1655,1690,5.432,0,0,0,0,1,0,
54,4604.1,4121.54,4384.1,4222.05,4064.62,3570.26,4387.69,4461.54,4734.36,4502.56,4581.03,4411.79,4384.1,4104.1,1655,1688,5.441,0,0,0,0,1,0,
55,4589.23,4108.21,4378.46,4217.44,4062.05,3564.1,4385.64,4460.51,4732.31,4503.08,4571.79,4400,4374.87,4085.64,1654,1689,5.449,0,0,0,0,1,0,
56,4576.41,4100,4371.79,4216.92,4066.67,3567.69,4388.21,4458.46,4734.87,4499.49,4567.69,4397.44,4363.08,4075.38,1655,1688,5.456,0,0,0,0,1,0,
57,4568.21,4092.31,4367.18,4212.82,4067.69,3567.18,4390.77,4458.97,4732.82,4491.28,4567.69,4395.38,4357.44,4063.59,1654,1688,5.463,0,0,0,0,1,0,
58,4556.92,4080.51,4365.13,4203.08,4058.46,3558.97,4388.21,4458.97,4725.13,4493.33,4560,4388.72,4354.36,4053.85,1655,1688,5.471,0,0,0,0,1,0,
59,4544.1,4071.28,4364.62,4200.51,4057.44,3557.95,4385.64,4457.44,4726.15,4504.62,4554.36,4386.67,4349.74,4052.31,1654,1688,5.479,0,0,0,0,1,0,
60,4535.9,4061.03,4361.54,4199.49,4064.62,3564.62,4389.74,4458.46,4735.38,4506.67,4557.44,4385.64,4345.13,4041.03,1655,1689,5.487,0,0,0,0,1,0,
61,4526.67,4051.28,4352.31,4189.74,4063.08,3564.62,4391.28,4458.97,4734.36,4494.36,4554.36,4377.44,4337.44,4020,1656,1688,5.495,0,0,0,0,1,0,
62,4513.33,4044.1,4343.59,4182.05,4057.95,3562.56,4387.18,4455.9,4729.23,4489.74,4550.26,4367.18,4331.79,4015.38,1655,1691,5.502,0,0,0,0,1,0,
63,4506.15,4037.95,4341.03,4186.67,4058.97,3569.23,4386.15,4456.92,4733.85,4502.05,4554.36,4364.62,4330.77,4020,1656,1691,5.51,0,0,0,0,1,0,
64,4505.13,4036.41,4342.05,4190.26,4064.1,3572.31,4385.64,4461.54,4736.92,4514.36,4557.44,4366.67,4329.74,4015.38,1656,1692,5.518,0,0,0,0,1,0,
65,4507.18,4037.44,4342.56,4185.64,4065.64,3563.59,4382.56,4455.38,4733.33,4514.87,4554.87,4366.15,4326.67,4009.74,1656,1693,5.526,0,0,0,0,1,0,
66,4503.08,4032.82,4341.03,4182.56,4059.49,3556.41,4380.51,4444.1,4732.31,4507.69,4552.31,4363.59,4321.54,4005.64,1656,1693,5.534,0,0,0,0,1,0,
67,4492.31,4023.59,4340,4181.03,4055.38,3559.49,4381.54,4445.13,4733.85,4503.59,4550.77,4363.59,4313.85,3995.38,1656,1693,5.542,0,0,0,0,1,0,
68,4488.21,4018.97,4340,4175.38,4058.46,3558.46,4381.03,4450.77,4734.87,4507.18,4553.33,4364.62,4310.77,3988.21,1655,1694,5.549,0,0,0,0,1,0,
69,4486.15,4016.41,4341.54,4169.23,4059.49,3557.95,4382.05,4449.23,4735.38,4505.64,4553.85,4365.13,4310.26,3991.28,1656,1694,5.557,0,0,0,0,1,0,
70,4477.44,4011.28,4340.51,4169.23,4055.9,3557.95,4384.1,4444.62,4729.74,4493.85,4545.13,4362.56,4307.69,3990.26,1654,1693,5.565,0,0,0,0,1,0,
71,4470.26,4005.13,4334.87,4170.26,4056.41,3554.87,4381.03,4443.08,4720,4490.77,4537.44,4356.92,4300.51,3979.49,1654,1694,5.573,0,0,0,0,1,0,
72,4472.31,4003.59,4335.9,4169.23,4060,3564.62,4385.64,4450.77,4723.59,4503.08,4540,4357.95,4298.46,3976.92,1655,1693,5.582,0,0,0,0,1,0,
73,4473.33,4006.67,4342.05,4170.26,4060,3572.31,4395.38,4457.95,4732.31,4507.69,4542.56,4366.15,4301.54,3982.05,1654,1694,5.589,0,0,0,0,1,0,
74,4474.87,4006.15,4339.49,4170.77,4061.03,3560.51,4392.31,4451.79,4729.23,4496.92,4540,4366.67,4300.51,3978.46,1655,1693,5.596,0,0,0,0,1,0,
75,4472.31,4003.59,4331.79,4168.21,4061.03,3552.82,4380.51,4445.64,4725.64,4491.28,4538.97,4358.97,4295.38,3971.79,1655,1695,5.604,0,0,0,0,1,0,
76,4462.56,4001.54,4332.31,4168.21,4054.87,3560,4378.46,4450.26,4733.85,4494.87,4538.97,4354.36,4294.87,3972.82,1656,1695,5.612,0,0,0,0,1,0,
77,4457.95,3998.46,4335.38,4169.23,4051.79,3561.54,4384.1,4450.77,4737.44,4492.82,4537.95,4355.38,4296.92,3972.82,1655,1694,5.62,0,0,0,0,1,0,
78,4461.03,3996.92,4332.82,4167.69,4052.31,3556.92,4386.67,4443.59,4726.67,4489.23,4539.49,4355.9,4295.9,3970.77,1655,1695,5.629,0,0,0,0,1,0,
79,4462.05,3999.49,4333.85,4167.18,4050.26,3559.49,4389.23,4448.72,4725.64,4492.31,4541.03,4360.51,4296.92,3974.36,1655,1694,5.635,0,0,0,0,1,0,
80,4461.54,3997.95,4337.95,4169.23,4053.85,3560.51,4392.31,4458.46,4734.36,4494.36,4540,4364.62,4296.92,3974.87,1656,1693,5.643,0,0,0,0,1,0,
81,4460.51,3990.26,4337.44,4168.72,4061.03,3557.95,4390.77,4458.46,4732.31,4488.21,4537.95,4360.51,4292.82,3970.77,1654,1693,5.651,0,0,0,0,1,0,
82,4458.97,3988.21,4336.92,4169.23,4056.92,3557.44,4388.72,4455.38,4726.15,4485.13,4542.05,4359.49,4293.33,3971.28,1655,1694,5.659,0,0,0,0,1,0,
83,4464.62,3994.36,4342.56,4170.77,4048.72,3560.51,4390.26,4457.95,4730.26,4490.26,4545.13,4366.67,4297.44,3974.87,1656,1692,5.667,0,0,0,0,1,0,
84,4473.33,3997.44,4345.13,4170.26,4048.72,3560,4392.31,4460,4734.87,4492.82,4540,4369.23,4297.44,3974.87,1654,1693,5.675,0,0,0,0,1,0,
85,4473.85,3996.92,4342.56,4169.74,4051.28,3557.95,4388.72,4457.95,4732.82,4492.82,4541.54,4366.15,4300,3975.9,1655,1692,5.682,0,0,0,0,1,0,
86,4472.82,4001.54,4345.13,4171.79,4054.36,3561.54,4387.69,4456.92,4733.33,4500.51,4550.26,4366.67,4303.59,3981.54,1654,1691,5.691,0,0,0,0,1,0,
87,4475.9,4008.21,4348.72,4173.85,4060.51,3569.23,4394.36,4458.46,4734.87,4510.26,4553.33,4368.72,4304.1,3984.62,1654,1691,5.699,0,0,0,0,1,0,
88,4474.87,4007.18,4345.13,4173.33,4062.56,3573.33,4400,4463.08,4738.46,4505.13,4550.26,4368.72,4304.62,3980.51,1654,1690,5.706,0,0,0,0,1,0,
89,4465.64,4001.03,4337.95,4170.26,4061.03,3568.72,4397.95,4463.59,4740.51,4494.36,4544.62,4366.15,4301.54,3974.87,1654,1691,5.714,0,0,0,0,1,0,
90,4460,3996.41,4336.41,4169.23,4059.49,3566.15,4395.38,4461.03,4738.97,4498.46,4538.46,4364.62,4295.9,3972.82,1653,1691,5.721,0,0,0,0,1,0,
91,4463.08,3998.46,4340,4171.79,4061.03,3571.79,4399.49,4462.05,4738.97,4503.08,4539.49,4365.13,4296.41,3975.38,1654,1691,5.729,0,0,0,0,1,0,
92,4462.56,3998.97,4337.95,4170.77,4061.03,3568.72,4400.51,4462.05,4737.44,4491.28,4539.49,4361.03,4295.38,3973.33,1654,1691,5.737,0,0,0,0,1,0,
93,4455.38,3991.28,4330.77,4167.69,4060,3563.08,4397.44,4458.46,4734.87,4485.64,4535.9,4356.41,4291.28,3967.69,1655,1691,5.745,0,0,0,0,1,0,
94,4455.9,3987.69,4332.31,4167.18,4058.97,3568.72,4397.95,4457.95,4736.92,4504.1,4537.95,4357.95,4295.38,3969.23,1655,1691,5.753,0,0,0,0,1,0,
95,4460.51,3989.23,4335.38,4164.1,4052.82,3567.18,4398.97,4461.03,4737.95,4507.18,4541.54,4357.95,4296.92,3973.85,1656,1691,5.761,0,0,0,0,1,0,
96,4460,3988.21,4332.82,4160,4049.23,3556.41,4396.41,4459.49,4734.36,4491.79,4538.97,4357.44,4292.31,3973.85,1656,1691,5.769,0,0,0,0,1,0,
97,4460.51,3986.67,4334.87,4164.1,4057.95,3561.54,4397.95,4458.97,4734.87,4496.41,4538.97,4362.56,4293.33,3972.82,1657,1690,5.776,0,0,0,0,1,0,
98,4464.62,3992.31,4342.56,4171.28,4062.56,3573.33,4400.51,4462.56,4737.44,4509.74,4545.64,4368.21,4299.49,3976.41,1656,1691,5.784,0,0,0,0,1,0,
99,4463.08,3996.41,4343.59,4171.79,4059.49,3571.28,4398.97,4462.56,4736.41,4508.72,4550.26,4367.18,4302.56,3976.92,1657,1691,5.792,0,0,0,0,1,0,
100,4463.59,3998.46,4341.03,4170.26,4063.59,3568.72,4397.95,4460,4735.9,4504.62,4548.21,4366.15,4304.1,3973.33,1656,1690,5.8,0,0,0,0,1,0,
101,4469.74,4005.64,4343.08,4172.82,4069.23,3571.79,4398.97,4461.03,4738.46,4507.69,4543.08,4367.18,4303.08,3976.41,1656,1691,5.807,0,0,0,0,1,0,
102,4467.18,4005.13,4343.59,4172.82,4065.64,3568.21,4397.95,4462.05,4740,4507.69,4538.46,4367.18,4297.44,3980.51,1657,1689,5.815,0,0,0,0,1,0,
103,4458.97,3995.9,4341.54,4169.74,4063.59,3560,4395.9,4458.97,4734.87,4506.67,4538.97,4366.67,4292.82,3975.38,1656,1691,5.823,0,0,0,0,1,0,
104,4460.51,3995.9,4341.54,4169.23,4062.05,3560,4396.92,4458.46,4732.82,4504.1,4546.15,4367.18,4295.38,3972.31,1656,1690,5.831,0,0,0,0,1,0,
105,4463.08,3998.97,4341.54,4169.74,4061.03,3563.59,4397.95,4460.51,4737.44,4496.41,4545.64,4367.69,4296.41,3975.38,1655,1690,5.839,0,0,0,0,1,0,
106,4458.97,3992.31,4341.03,4168.72,4066.67,3561.03,4397.95,4458.46,4735.38,4491.79,4537.95,4365.64,4291.28,3975.38,1655,1691,5.847,0,0,0,0,1,0,
107,4459.49,3988.72,4342.56,4167.69,4068.72,3558.97,4398.97,4457.44,4729.74,4492.82,4539.49,4364.1,4289.74,3973.33,1655,1691,5.855,0,0,0,0,1,0,
108,4462.56,3989.74,4343.59,4169.74,4062.56,3561.03,4398.97,4460,4731.79,4491.79,4545.13,4365.13,4289.23,3973.85,1655,1692,5.862,0,0,0,0,1,0,
109,4460.51,3988.21,4341.03,4169.23,4060,3560.51,4397.44,4460.51,4734.87,4491.79,4544.1,4366.67,4286.15,3973.85,1653,1692,5.87,0,0,0,0,1,0,
110,4460.51,3988.72,4339.49,4167.69,4060,3560,4396.41,4459.49,4735.38,4502.56,4542.56,4368.21,4288.72,3975.38,1654,1693,5.878,0,0,0,0,1,0,
111,4461.54,3990.77,4340.51,4167.18,4057.95,3558.97,4394.87,4458.46,4736.41,4506.67,4544.1,4367.18,4293.85,3975.38,1654,1692,5.886,0,0,0,0,1,0,
112,4459.49,3988.72,4341.03,4168.21,4061.54,3557.95,4394.87,4460,4736.41,4501.03,4543.59,4365.13,4293.33,3972.82,1654,1692,5.894,0,0,0,0,1,0,
113,4457.44,3990.77,4341.03,4168.72,4071.28,3565.13,4401.03,4464.62,4735.9,4501.03,4543.08,4365.13,4287.69,3973.85,1654,1691,5.901,0,0,0,0,1,0,
114,4456.92,3991.79,4341.54,4168.21,4068.72,3568.72,4404.1,4465.64,4735.38,4500,4540.51,4363.08,4282.05,3974.87,1653,1692,5.909,0,0,0,0,1,0,
115,4456.92,3987.18,4338.97,4165.64,4058.97,3560.51,4399.49,4461.03,4733.85,4491.28,4537.95,4356.92,4278.97,3971.79,1655,1692,5.917,0,0,0,0,1,0,
116,4456.92,3985.13,4336.41,4165.64,4063.59,3558.46,4396.41,4461.03,4734.36,4488.72,4538.46,4358.97,4284.1,3972.31,1654,1692,5.925,0,0,0,0,1,0,
117,4458.46,3989.74,4337.95,4168.21,4072.82,3563.08,4400,4464.1,4735.9,4500.51,4541.03,4366.67,4288.21,3975.38,1655,1692,5.933,0,0,0,0,1,0,
118,4458.46,3991.79,4337.95,4168.21,4068.72,3561.54,4402.05,4462.56,4735.38,4507.69,4541.03,4365.64,4284.1,3973.85,1655,1691,5.941,0,0,0,0,1,0,
119,4455.9,3990.26,4334.36,4165.64,4065.64,3562.56,4401.54,4459.49,4734.87,4495.9,4540,4363.08,4281.03,3971.79,1655,1692,5.949,0,0,0,0,1,0,
120,4456.92,3989.74,4333.85,4165.13,4068.21,3571.79,4401.54,4460,4735.38,4487.69,4541.03,4365.64,4285.13,3973.33,1654,1691,5.956,0,0,0,0,1,0,
121,4457.95,3990.77,4334.87,4169.23,4065.64,3571.79,4401.03,4461.03,4735.38,4503.59,4541.03,4363.08,4288.21,3975.9,1655,1692,5.964,0,0,0,0,1,0,
122,4451.28,3988.21,4330.26,4166.15,4061.54,3561.54,4400.51,4460,4733.33,4510.77,4538.97,4357.95,4284.62,3973.85,1656,1690,5.972,0,0,0,0,1,0,
123,4441.03,3980,4324.1,4155.9,4062.05,3556.92,4395.38,4457.95,4733.33,4492.82,4537.44,4352.82,4278.97,3964.1,1654,1692,5.98,0,0,0,0,1,0,
124,4440,3978.97,4324.1,4153.33,4060.51,3559.49,4389.74,4457.95,4733.85,4488.21,4533.85,4345.64,4276.41,3956.92,1656,1691,5.987,0,0,0,0,1,0,
125,4441.54,3983.59,4323.08,4156.41,4060.51,3560,4389.23,4455.9,4728.72,4493.85,4526.15,4340.51,4276.41,3956.92,1654,1691,5.996,0,0,0,0,1,0,
126,4437.44,3980,4317.95,4152.82,4061.54,3556.41,4394.87,4451.28,4721.54,4482.05,4523.08,4341.54,4274.36,3955.38,1655,1691,6.004,0,0,0,0,1,0,
127,4437.44,3975.9,4321.03,4151.28,4062.56,3555.38,4396.92,4449.23,4722.05,4471.79,4524.1,4342.56,4274.87,3952.82,1654,1690,6.011,0,0,0,0,1,0,
128,4443.59,3984.62,4326.15,4154.87,4066.15,3556.41,4387.18,4446.67,4722.56,4483.59,4524.1,4341.54,4278.97,3954.36,1654,1692,6.019,0,0,0,0,1,0,
0,4446.67,3991.28,4322.05,4156.41,4066.15,3556.41,4378.97,4440.51,4715.9,4494.87,4530.26,4343.59,4281.03,3961.03,1655,1691,6.027,0,0,0,0,1,0,
1,4445.13,3988.72,4320.51,4161.54,4064.62,3557.44,4384.1,4445.13,4720,4491.79,4536.92,4350.26,4284.62,3970.26,1654,1691,6.034,0,0,0,0,1,0,
2,4446.67,3990.26,4328.21,4167.69,4070.77,3561.03,4391.28,4455.38,4733.33,4486.15,4537.44,4353.33,4290.26,3974.36,1655,1691,6.042,0,0,0,0,1,0,
3,4449.23,3991.28,4330.26,4168.72,4078.46,3562.56,4389.74,4457.44,4735.38,4492.82,4538.46,4352.31,4289.23,3971.79,1655,1692,6.05,0,0,0,0,1,0,
4,4446.67,3987.69,4328.21,4168.21,4075.9,3560,4389.74,4456.41,4732.82,4503.08,4539.49,4351.79,4283.08,3971.28,1655,1692,6.058,0,0,0,0,1,0,
5,4452.82,3989.23,4334.87,4166.67,4069.74,3562.05,4395.9,4459.49,4737.95,4503.59,4537.95,4351.79,4285.13,3972.82,1654,1693,6.066,0,0,0,0,1,0,
6,4460,3997.95,4338.46,4166.15,4071.79,3572.31,4400.51,4462.56,4741.54,4503.08,4539.49,4349.74,4293.85,3974.36,1655,1693,6.073,0,0,0,0,1,0,
7,4454.87,3998.97,4330.77,4168.21,4083.59,3571.79,4400,4458.46,4735.9,4504.1,4540,4346.15,4292.31,3974.36,1654,1693,6.081,0,0,0,0,1,0,
8,4451.79,3992.31,4324.1,4167.69,4088.21,3559.49,4395.9,4446.67,4725.13,4495.38,4534.87,4340.51,4282.05,3967.18,1656,1693,6.089,0,0,0,0,1,0,
9,4456.41,3991.28,4325.64,4165.64,4077.44,3561.03,4395.38,4446.67,4724.1,4485.13,4534.36,4338.46,4278.97,3965.64,1655,1692,6.097,0,0,0,0,1,0,
10,4452.31,3991.79,4327.18,4168.21,4073.33,3574.36,4398.46,4460.51,4732.82,4491.28,4538.97,4342.56,4282.05,3972.82,1655,1693,6.111,0,0,0,0,1,0,
11,4443.08,3988.21,4326.15,4165.64,4077.44,3571.79,4397.95,4459.49,4734.87,4491.28,4536.92,4342.05,4278.46,3968.21,1655,1692,6.115,0,0,0,0,1,0,
12,4441.54,3987.18,4323.59,4161.54,4076.92,3561.03,4394.36,4447.18,4730.26,4477.44,4530.77,4334.36,4275.38,3957.95,1654,1693,6.12,0,0,0,0,1,0,
13,4444.1,3987.18,4324.1,4163.59,4072.31,3558.97,4394.87,4449.74,4731.28,4480.51,4530.26,4333.33,4276.41,3963.59,1654,1692,6.128,0,0,0,0,1,0,
14,4450.26,3986.15,4330.26,4166.15,4073.85,3558.97,4396.92,4457.95,4734.36,4501.03,4537.44,4343.59,4285.64,3972.31,1654,1693,6.136,0,0,0,0,1,0,
15,4459.49,3991.79,4336.41,4166.15,4075.9,3561.03,4396.92,4459.49,4736.92,4510.26,4551.28,4352.82,4298.46,3976.92,1655,1692,6.145,0,0,0,0,1,0,
16,4462.05,3999.49,4336.92,4167.69,4074.87,3569.74,4397.95,4460.51,4742.05,4508.21,4557.44,4352.82,4300.51,3982.56,1655,1693,6.152,0,0,0,0,1,0,
17,4460.51,3997.95,4333.85,4168.21,4077.44,3572.82,4399.49,4461.03,4740.51,4505.64,4546.67,4346.67,4296.92,3981.03,1655,1693,6.16,0,0,0,0,1,0,
18,4457.95,3990.77,4330.77,4164.62,4082.56,3566.67,4397.95,4456.41,4734.36,4496.92,4537.44,4341.54,4293.85,3973.33,1655,1693,6.167,0,0,0,0,1,0,
19,4456.41,3992.31,4327.69,4164.1,4084.1,3558.46,4393.33,4453.85,4732.31,4487.18,4538.97,4337.95,4286.15,3971.79,1656,1692,6.177,0,0,0,0,1,0,
20,4455.38,3998.46,4326.15,4166.67,4082.56,3562.05,4389.23,4457.44,4734.87,4490.77,4538.46,4336.41,4284.62,3973.85,1656,1692,6.183,0,0,0,0,1,0,
21,4456.41,3997.44,4329.74,4168.21,4082.05,3568.21,4388.72,4456.41,4733.33,4493.85,4537.44,4338.97,4290.26,3974.36,1656,1691,6.191,0,0,0,0,1,0,
22,4457.95,3997.95,4333.33,4168.21,4086.15,3563.59,4388.72,4447.18,4726.67,4492.31,4542.05,4343.08,4289.74,3975.38,1656,1692,6.199,0,0,0,0,1,0,
23,4458.46,4003.08,4334.36,4168.21,4089.23,3554.87,4387.18,4445.13,4725.64,4496.92,4541.54,4344.1,4289.23,3974.87,1657,1691,6.207,0,0,0,0,1,0,
24,4458.46,4003.59,4335.38,4170.26,4086.67,3557.95,4389.23,4454.36,4731.79,4504.1,4538.97,4344.1,4293.85,3972.31,1656,1692,6.214,0,0,0,0,1,0,
25,4458.97,4001.54,4335.38,4172.31,4080.51,3564.1,4390.77,4454.87,4736.92,4507.69,4539.49,4343.59,4295.38,3972.82,1658,1691,6.223,0,0,0,0,1,0,
26,4460.51,4003.08,4333.85,4172.31,4084.62,3564.1,4388.72,4446.15,4733.85,4501.03,4538.97,4344.1,4293.33,3973.85,1656,1692,6.23,0,0,0,0,1,0,
27,4461.54,4004.1,4335.9,4171.79,4092.31,3566.67,4392.31,4444.62,4729.23,4493.33,4540.51,4347.69,4293.85,3975.9,1657,1692,6.239,0,0,0,0,1,0,
28,4461.03,4004.62,4339.49,4171.28,4090.26,3571.79,4400.51,4448.72,4729.74,4493.33,4542.05,4348.72,4295.38,3978.97,1656,1692,6.246,0,0,0,0,1,0,
29,4456.92,4003.08,4332.82,4170.77,4093.33,3571.28,4399.49,4448.72,4728.72,4491.28,4538.97,4342.05,4288.21,3976.92,1656,1693,6.253,0,0,0,0,1,0,
30,4452.82,4001.03,4325.13,4170.26,4100,3568.72,4394.87,4450.26,4727.69,4493.33,4535.9,4338.46,4278.46,3970.26,1655,1692,6.261,0,0,0,0,1,0,
31,4455.9,4003.59,4326.67,4170.77,4096.92,3571.79,4402.05,4457.95,4733.33,4501.03,4537.44,4341.03,4284.1,3971.79,1654,1695,6.269,0,0,0,0,1,0,
32,4457.95,4004.62,4321.54,4169.23,4090.77,3577.44,4409.74,4461.54,4738.97,4500,4542.05,4340,4291.79,3974.36,1654,1693,6.277,0,0,0,0,1,0,
33,4449.74,4000,4309.74,4167.69,4092.31,3574.87,4401.54,4457.44,4734.36,4492.82,4540.51,4332.82,4288.21,3969.74,1654,1693,6.286,0,0,0,0,1,0,
34,4444.1,4001.54,4308.21,4168.72,4094.36,3571.28,4394.36,4455.38,4733.33,4505.13,4533.33,4331.28,4292.82,3967.69,1654,1692,6.293,0,0,0,0,1,0,
35,4453.33,4005.13,4312.82,4169.74,4093.85,3573.33,4397.95,4459.49,4739.49,4523.59,4542.56,4340,4308.21,3974.36,1652,1693,6.3,0,0,0,0,1,0,
36,4462.56,4003.59,4311.79,4167.18,4092.82,3573.85,4396.92,4462.56,4739.49,4516.92,4555.38,4344.62,4313.85,3981.54,1653,1693,6.308,0,0,0,0,1,0,
37,4460.51,4002.05,4312.31,4165.64,4087.18,3570.26,4391.28,4460,4736.92,4505.64,4546.67,4341.03,4315.38,3985.13,1652,1692,6.316,0,0,0,0,1,0,
38,4462.05,4005.13,4320,4168.72,4082.05,3569.74,4395.38,4457.44,4735.38,4506.67,4540,4344.62,4322.56,3987.69,1654,1692,6.324,0,0,0,0,1,0,
39,4471.79,4005.64,4328.21,4172.31,4082.56,3573.33,4400,4457.95,4734.36,4506.15,4552.31,4354.87,4327.69,3988.21,1653,1691,6.332,0,0,0,0,1,0,
40,4477.95,4006.67,4329.74,4172.82,4084.62,3572.82,4400,4459.49,4733.85,4507.18,4555.38,4356.92,4326.67,3991.28,1653,1692,6.34,0,0,0,0,1,0,
41,4469.23,4007.69,4325.13,4171.28,4082.05,3569.23,4399.49,4458.97,4733.33,4505.64,4543.08,4350.77,4318.97,3987.18,1655,1692,6.347,0,0,0,0,1,0,
42,4460,4004.1,4323.08,4171.79,4074.87,3568.72,4395.38,4457.44,4732.31,4495.38,4538.46,4347.69,4311.28,3977.44,1653,1693,6.355,0,0,0,0,1,0,
43,4466.15,4005.13,4325.64,4171.79,4072.82,3565.64,4389.74,4457.95,4732.31,4495.38,4540,4347.18,4310.26,3978.46,1655,1692,6.363,0,0,0,0,1,0,
44,4476.41,4012.31,4325.13,4172.31,4081.54,3559.49,4387.18,4455.9,4732.31,4506.67,4540.51,4345.64,4313.85,3986.67,1655,1692,6.371,0,0,0,0,1,0,
45,4472.31,4014.87,4325.13,4178.97,4083.08,3565.13,4384.1,4453.85,4733.85,4507.69,4541.54,4348.21,4316.41,3989.23,1656,1691,6.379,0,0,0,0,1,0,
46,4462.56,4009.23,4325.64,4182.56,4074.36,3570.26,4379.49,4455.38,4735.38,4503.59,4541.03,4347.69,4314.87,3982.56,1655,1691,6.388,0,0,0,0,1,0,
47,4460,4003.08,4319.49,4173.85,4072.31,3564.62,4385.13,4457.95,4736.92,4508.21,4541.03,4342.56,4311.28,3975.38,1656,1690,6.394,0,0,0,0,1,0,
48,4458.97,3995.9,4314.87,4164.62,4071.79,3568.21,4396.41,4459.49,4741.54,4508.72,4541.54,4340,4309.23,3973.33,1656,1689,6.402,0,0,0,0,1,0,
49,4454.36,3986.67,4316.92,4164.62,4061.03,3570.77,4400,4460.51,4744.1,4493.33,4541.54,4340,4308.21,3972.82,1656,1691,6.41,0,0,0,0,1,0,
50,4454.36,3985.13,4322.05,4166.67,4053.85,3565.13,4398.46,4461.03,4739.49,4490.26,4540,4343.08,4306.67,3970.26,1656,1689,6.418,0,0,0,0,1,0,
51,4460.51,3992.82,4326.15,4167.69,4063.08,3566.15,4398.97,4461.54,4735.9,4503.08,4540,4349.74,4308.21,3974.87,1655,1691,6.427,0,0,0,0,1,0,
52,4464.62,3998.46,4327.69,4169.74,4069.74,3568.21,4399.49,4462.56,4735.9,4500,4543.08,4352.82,4308.21,3984.1,1656,1689,6.433,0,0,0,0,1,0,
53,4462.05,3996.92,4325.13,4168.21,4062.56,3563.08,4398.46,4461.54,4734.87,4485.13,4541.54,4349.23,4301.03,3980,1655,1689,6.441,0,0,0,0,1,0,
54,4460.51,3996.92,4325.13,4166.67,4061.54,3569.74,4401.54,4460.51,4733.85,4492.82,4536.92,4348.72,4295.38,3975.38,1656,1688,6.449,0,0,0,0,1,0,
55,4463.08,3997.95,4328.72,4170.26,4069.74,3576.41,4405.64,4461.03,4736.92,4502.05,4539.49,4351.28,4299.49,3980.51,1655,1689,6.457,0,0,0,0,1,0,
56,4456.92,3992.82,4319.49,4166.15,4066.67,3564.1,4400,4459.49,4735.9,4488.21,4540.51,4343.59,4297.95,3974.36,1656,1688,6.465,0,0,0,0,1,0,
57,4444.62,3987.18,4307.18,4154.36,4054.36,3554.36,4394.36,4456.92,4726.67,4482.05,4526.67,4330.26,4284.1,3958.46,1655,1688,6.474,0,0,0,0,1,0,
58,4445.64,3988.21,4309.74,4154.36,4058.97,3560,4397.95,4456.41,4723.08,4489.74,4518.97,4328.21,4279.49,3957.95,1657,1689,6.48,0,0,0,0,1,0,
59,4455.38,3993.33,4318.97,4167.69,4067.69,3568.72,4401.03,4458.46,4726.15,4491.79,4528.72,4337.95,4288.72,3966.67,1655,1688,6.489,0,0,0,0,1,0,
60,4460.51,3998.97,4322.56,4170.77,4061.03,3570.77,4398.46,4458.97,4726.67,4485.64,4537.95,4345.13,4294.87,3971.79,1657,1689,6.497,0,0,0,0,1,0,
61,4468.72,4006.67,4329.23,4168.21,4061.03,3569.74,4398.97,4460,4728.21,4490.77,4544.62,4353.85,4302.05,3982.05,1657,1688,6.504,0,0,0,0,1,0,
62,4478.46,4013.85,4338.46,4176.92,4074.87,3573.85,4401.54,4462.05,4734.87,4507.18,4553.33,4366.15,4313.33,3995.9,1655,1692,6.512,0,0,0,0,1,0,
63,4478.46,4011.28,4337.44,4178.46,4077.95,3572.82,4401.03,4461.54,4737.95,4506.15,4555.9,4368.21,4314.87,4001.54,1657,1691,6.521,0,0,0,0,1,0,
64,4474.36,4003.08,4335.38,4169.74,4068.21,3562.05,4397.44,4459.49,4737.44,4497.44,4553.33,4363.59,4310.26,4002.05,1654,1693,6.527,0,0,0,0,1,0,
65,4477.95,4004.1,4341.03,4168.21,4064.1,3555.9,4394.36,4456.92,4735.9,4503.08,4554.36,4366.67,4311.79,4006.67,1656,1693,6.535,0,0,0,0,1,0,
66,4480.51,4011.28,4343.59,4171.79,4069.23,3562.56,4394.87,4456.41,4732.82,4512.82,4555.38,4368.72,4312.82,4005.64,1655,1693,6.544,0,0,0,0,1,0,
67,4478.46,4007.69,4337.44,4170.77,4072.31,3568.21,4397.95,4457.44,4732.31,4507.18,4554.87,4362.56,4311.79,3993.85,1655,1693,6.551,0,0,0,0,1,0,
68,4474.36,4001.03,4333.33,4168.21,4070.26,3567.18,4400,4456.92,4730.77,4495.38,4552.31,4357.44,4310.26,3986.15,1655,1693,6.56,0,0,0,0,1,0,
69,4470.26,4004.1,4332.31,4168.72,4066.15,3568.72,4401.03,4455.9,4724.62,4491.28,4543.59,4356.41,4303.08,3988.72,1655,1693,6.567,0,0,0,0,1,0,
70,4463.08,4004.1,4327.69,4169.74,4067.69,3572.31,4402.05,4455.9,4723.59,4492.31,4536.92,4350.77,4296.92,3986.15,1655,1693,6.574,0,0,0,0,1,0,
71,4458.97,3998.46,4324.1,4167.69,4069.74,3569.74,4401.03,4456.92,4728.21,4490.26,4535.9,4342.05,4296.41,3974.36,1655,1694,6.582,0,0,0,0,1,0,
72,4460,4001.54,4324.1,4167.69,4067.69,3569.74,4398.97,4458.97,4733.33,4487.18,4535.9,4341.54,4298.46,3971.28,1654,1694,6.59,0,0,0,0,1,0,
73,4461.54,4004.62,4325.13,4168.72,4063.59,3570.26,4398.46,4460.51,4735.38,4497.44,4535.9,4345.13,4298.97,3974.87,1655,1694,6.599,0,0,0,0,1,0,
74,4459.49,3993.33,4323.08,4161.54,4058.97,3563.59,4397.95,4460.51,4734.87,4508.72,4536.41,4342.56,4296.41,3973.85,1654,1694,6.607,0,0,0,0,1,0,
75,4456.92,3987.69,4322.05,4156.92,4062.56,3554.87,4394.36,4458.46,4733.33,4503.59,4537.44,4340.51,4294.87,3972.82,1656,1694,6.614,0,0,0,0,1,0,
76,4457.95,3995.9,4325.13,4164.62,4070.26,3557.44,4394.87,4457.44,4733.85,4493.33,4538.46,4346.15,4296.41,3975.38,1654,1694,6.621,0,0,0,0,1,0,
77,4461.54,4000,4328.21,4169.74,4067.18,3565.13,4399.49,4457.95,4733.33,4492.31,4537.44,4350.26,4297.95,3976.92,1656,1693,6.637,0,0,0,0,1,0,
78,4461.54,3995.9,4326.15,4165.13,4060.51,3563.59,4401.03,4456.41,4727.69,4491.28,4535.38,4344.62,4293.85,3974.36,1655,1692,6.639,0,0,0,0,1,0,
79,4457.44,3996.41,4326.15,4166.15,4065.64,3562.05,4398.46,4454.87,4722.56,4487.18,4534.36,4343.59,4292.31,3972.82,1655,1693,6.645,0,0,0,0,1,0,
80,4457.44,3998.46,4328.72,4169.23,4069.74,3564.1,4398.97,4456.41,4723.08,4488.72,4535.9,4351.79,4294.87,3974.87,1656,1692,6.652,0,0,0,0,1,0,
81,4460,3991.79,4327.69,4166.67,4062.56,3562.05,4398.97,4456.92,4725.13,4492.31,4536.41,4353.33,4288.72,3975.38,1654,1694,6.66,0,0,0,0,1,0,
82,4458.97,3986.67,4326.67,4164.62,4058.46,3562.56,4397.95,4455.9,4727.69,4492.31,4534.87,4348.21,4278.46,3971.79,1656,1692,6.669,0,0,0,0,1,0,
