COUNTER,AF3,F7,F3, FC5, T7, P7, O1, O2,P8, T8, FC6, F4,F8, AF4,GYROX, GYROY, TIMESTAMP, FUNC_ID, FUNC_VALUE, MARKER, SYNC_SIGNAL,
24,4058.97,4180,4056.92,3862.05,4361.03,4150.26,4553.33,4536.92,4295.38,3922.56,4215.9,4592.31,4407.18,4597.44,1690,1708,0.093,0,0,0,0,
25,4062.05,4184.62,4061.03,3861.03,4370.77,4152.82,4555.38,4543.59,4297.44,3925.64,4226.15,4600.51,4416.41,4602.05,1690,1710,0.1,0,0,0,0,
26,4058.46,4183.08,4060.51,3858.46,4368.72,4155.9,4554.36,4541.03,4293.33,3925.13,4230.77,4597.44,4420.51,4599.49,1691,1709,0.108,0,0,0,0,
27,4061.03,4185.64,4060,3864.62,4364.1,4155.38,4561.54,4545.13,4296.41,3926.15,4229.23,4598.46,4419.49,4600,1690,1710,0.116,0,0,0,0,
28,4064.1,4186.15,4068.21,3864.1,4362.05,4152.82,4570.26,4554.87,4302.05,3927.18,4229.74,4602.56,4419.49,4613.33,1692,1710,0.124,0,0,0,0,
29,4061.03,4180.51,4075.38,3849.74,4365.64,4154.36,4569.23,4550.77,4298.97,3925.64,4230.77,4601.54,4421.03,4618.46,1690,1710,0.132,0,0,0,0,
30,4063.59,4184.1,4070.26,3849.23,4374.36,4157.95,4567.69,4544.1,4292.31,3925.64,4228.21,4601.03,4421.54,4611.79,1691,1711,0.139,0,0,0,0,
31,4067.18,4188.21,4066.15,3863.08,4375.38,4155.38,4567.18,4548.72,4292.31,3926.67,4229.23,4601.54,4419.49,4611.28,1691,1711,0.147,0,0,0,0,
32,4065.13,4188.21,4067.18,3866.15,4369.23,4156.92,4568.72,4555.9,4303.08,3927.18,4235.38,4603.08,4416.92,4612.82,1691,1711,0.155,0,0,0,0,
33,4060.51,4187.18,4063.59,3858.97,4361.54,4165.64,4567.69,4553.85,4308.21,3929.74,4231.28,4603.08,4413.33,4602.56,1690,1710,0.163,0,0,0,0,
34,4057.95,4184.62,4057.44,3861.03,4365.13,4163.59,4560,4544.1,4300,3926.67,4218.46,4592.82,4411.28,4595.9,1690,1711,0.171,0,0,0,0,
35,4061.03,4187.69,4060,3868.21,4376.92,4153.85,4554.36,4538.97,4294.87,3917.44,4215.9,4583.08,4412.82,4602.56,1691,1710,0.179,0,0,0,0,
36,4059.49,4185.64,4062.05,3855.9,4364.62,4153.85,4557.95,4537.44,4296.92,3913.33,4220.51,4585.64,4409.23,4601.54,1690,1711,0.186,0,0,0,0,
37,4047.69,4171.28,4053.33,3836.92,4337.44,4154.36,4554.87,4532.82,4290.77,3910.26,4214.87,4584.62,4396.41,4587.69,1691,1708,0.194,0,0,0,0,
38,4044.1,4170.77,4050.77,3842.56,4345.64,4153.33,4552.31,4532.82,4289.23,3911.79,4209.74,4583.08,4396.41,4588.21,1690,1709,0.202,0,0,0,0,
39,4057.44,4187.69,4061.03,3855.38,4374.36,4156.92,4559.49,4540.51,4299.49,3922.56,4218.97,4595.9,4411.79,4606.15,1692,1708,0.21,0,0,0,0,
40,4062.05,4189.74,4065.64,3847.18,4369.74,4156.92,4562.56,4541.54,4298.97,3921.03,4221.54,4603.59,4416.41,4608.72,1691,1708,0.218,0,0,0,0,
41,4060.51,4182.56,4062.56,3849.23,4353.33,4154.87,4562.56,4541.03,4292.82,3908.21,4216.41,4598.46,4409.23,4598.46,1692,1709,0.225,0,0,0,0,
42,4068.72,4188.72,4065.64,3866.15,4357.95,4157.44,4569.23,4550.77,4298.97,3911.79,4223.08,4599.49,4409.74,4602.05,1691,1708,0.233,0,0,0,0,
43,4067.18,4188.21,4070.77,3851.79,4355.9,4155.38,4571.79,4556.41,4299.49,3920.51,4225.13,4605.13,4414.36,4604.62,1691,1709,0.241,0,0,0,0,
44,4057.95,4181.54,4066.67,3832.31,4349.23,4154.87,4569.74,4552.31,4295.38,3914.36,4218.97,4602.56,4413.33,4603.08,1691,1708,0.249,0,0,0,0,
45,4059.49,4181.54,4062.05,3845.64,4349.23,4156.92,4570.77,4547.69,4294.87,3909.74,4216.41,4594.36,4405.13,4604.62,1691,1709,0.257,0,0,0,0,
46,4055.9,4180.51,4058.46,3855.9,4341.54,4153.33,4566.15,4538.46,4285.64,3902.05,4208.21,4585.13,4395.38,4591.28,1691,1708,0.265,0,0,0,0,
47,4047.69,4182.56,4052.31,3843.08,4341.03,4152.31,4562.56,4534.36,4281.54,3893.85,4200,4582.05,4393.33,4583.08,1690,1710,0.272,0,0,0,0,
48,4052.31,4189.23,4054.36,3843.59,4361.54,4156.92,4566.67,4545.64,4295.9,3905.13,4210.77,4585.64,4397.44,4597.95,1691,1709,0.28,0,0,0,0,
49,4055.9,4189.23,4057.44,3861.54,4368.72,4151.79,4566.15,4549.74,4300,3914.36,4219.49,4585.13,4400.51,4604.62,1690,1710,0.288,0,0,0,0,
50,4050.77,4184.1,4053.33,3856.41,4352.31,4149.23,4563.08,4544.1,4292.82,3908.72,4214.36,4582.56,4403.08,4594.87,1691,1710,0.296,0,0,0,0,
51,4053.33,4188.72,4055.9,3841.54,4350.26,4160.51,4566.67,4550.77,4305.13,3913.85,4220.51,4588.72,4408.21,4596.41,1690,1709,0.304,0,0,0,0,
52,4062.56,4191.79,4062.05,3848.72,4360.51,4161.03,4570.26,4558.46,4314.87,3921.54,4223.59,4597.44,4413.33,4609.23,1690,1711,0.311,0,0,0,0,
53,4066.67,4189.74,4063.59,3859.49,4359.49,4152.31,4568.72,4552.82,4305.13,3913.33,4218.97,4600.51,4412.82,4608.21,1690,1710,0.319,0,0,0,0,
54,4067.69,4193.85,4068.21,3853.85,4354.36,4158.97,4572.31,4553.85,4305.64,3909.74,4222.05,4601.54,4411.79,4600,1690,1711,0.327,0,0,0,0,
55,4067.69,4193.85,4071.79,3845.13,4353.85,4164.1,4573.85,4558.97,4307.69,3913.33,4222.05,4602.05,4413.85,4603.08,1691,1709,0.335,0,0,0,0,
56,4067.69,4186.67,4066.67,3850.77,4355.9,4155.9,4570.77,4555.9,4303.59,3914.36,4220.51,4601.54,4416.41,4616.41,1691,1709,0.343,0,0,0,0,
57,4066.67,4182.56,4065.64,3856.41,4349.23,4155.38,4577.95,4560.51,4307.18,3914.87,4229.74,4602.56,4412.82,4618.46,1692,1709,0.351,0,0,0,0,
58,4067.18,4188.72,4068.72,3851.28,4341.54,4161.03,4584.62,4564.1,4312.31,3914.87,4235.38,4605.64,4412.31,4614.36,1692,1710,0.358,0,0,0,0,
59,4074.87,4200,4070.77,3855.38,4352.82,4157.95,4576.41,4557.95,4310.77,3920,4232.31,4607.18,4422.56,4622.56,1692,1710,0.366,0,0,0,0,
60,4074.87,4203.08,4074.36,3859.49,4355.9,4153.85,4568.21,4552.31,4305.64,3927.69,4233.85,4606.67,4425.64,4625.64,1691,1710,0.374,0,0,0,0,
61,4068.72,4197.44,4072.82,3851.79,4341.03,4155.9,4569.74,4551.79,4298.97,3925.13,4231.79,4604.1,4414.87,4616.41,1691,1709,0.382,0,0,0,0,
62,4070.26,4198.97,4066.67,3853.85,4348.21,4155.38,4570.26,4552.31,4298.97,3919.49,4225.13,4601.03,4410.26,4613.33,1690,1709,0.39,0,0,0,0,
63,4075.9,4207.69,4065.64,3865.13,4376.92,4155.9,4570.26,4552.82,4305.64,3918.97,4227.69,4598.97,4414.36,4616.92,1690,1708,0.397,0,0,0,0,
64,4075.38,4205.64,4073.85,3866.67,4380,4160.51,4573.33,4556.41,4303.08,3915.9,4230.77,4602.05,4419.49,4620,1691,1708,0.405,0,0,0,0,
65,4067.69,4198.97,4073.85,3859.49,4359.49,4161.03,4571.28,4551.28,4293.85,3911.28,4222.56,4602.56,4417.44,4616.92,1691,1708,0.413,0,0,0,0,
66,4061.54,4197.44,4065.13,3857.44,4353.33,4155.9,4569.23,4542.56,4290.26,3907.69,4212.31,4595.9,4405.64,4605.13,1691,1709,0.421,0,0,0,0,
67,4068.72,4198.97,4067.69,3854.87,4358.97,4153.33,4570.77,4544.1,4290.77,3907.69,4217.44,4600.51,4405.13,4606.67,1692,1708,0.429,0,0,0,0,
68,4081.03,4204.62,4080,3859.49,4361.54,4161.03,4574.87,4556.41,4305.13,3921.03,4237.95,4615.9,4426.15,4628.72,1691,1708,0.437,0,0,0,0,
69,4080.51,4212.31,4079.49,3864.62,4362.56,4166.15,4579.49,4562.56,4320,3932.31,4249.23,4620.51,4434.36,4638.97,1693,1708,0.444,0,0,0,0,
70,4076.92,4217.95,4073.33,3862.56,4358.97,4163.59,4575.9,4558.46,4316.41,3930.77,4242.56,4616.92,4427.18,4630.77,1691,1708,0.452,0,0,0,0,
71,4076.41,4216.41,4074.36,3863.08,4351.79,4163.59,4571.79,4555.9,4308.21,3928.72,4234.36,4611.79,4427.18,4631.28,1692,1710,0.46,0,0,0,0,
72,4072.82,4220,4069.23,3864.62,4357.44,4158.46,4571.79,4555.9,4308.21,3930.26,4234.36,4604.62,4428.72,4631.79,1692,1708,0.468,0,0,0,0,
73,4073.33,4234.36,4063.59,3869.74,4376.41,4150.77,4572.31,4557.44,4312.31,3931.28,4234.36,4604.62,4429.23,4621.54,1691,1710,0.476,0,0,0,0,
74,4078.46,4232.31,4068.72,3867.18,4369.74,4150.77,4572.31,4556.41,4308.72,3928.21,4232.82,4606.15,4426.67,4620,1692,1709,0.483,0,0,0,0,
75,4077.44,4215.38,4075.38,3858.46,4351.79,4153.33,4572.31,4553.33,4302.56,3923.08,4230.77,4601.03,4416.92,4625.13,1691,1709,0.491,0,0,0,0,
76,4076.92,4222.56,4075.38,3868.21,4357.95,4158.97,4571.79,4555.9,4310.26,3929.74,4231.28,4606.15,4416.92,4626.15,1691,1709,0.499,0,0,0,0,
77,4083.59,4238.97,4075.38,3880,4361.54,4167.18,4570.77,4557.44,4321.54,3942.56,4241.03,4616.92,4427.69,4628.72,1690,1710,0.507,0,0,0,0,
78,4091.28,4235.38,4077.95,3869.23,4360,4163.59,4569.74,4556.41,4318.46,3943.08,4248.21,4618.46,4430.77,4635.9,1691,1710,0.515,0,0,0,0,
79,4089.74,4227.18,4077.95,3853.85,4363.59,4156.92,4569.74,4556.92,4311.79,3938.97,4240.51,4612.82,4430.26,4638.97,1689,1711,0.523,0,0,0,0,
80,4080,4224.62,4071.79,3860,4360,4164.62,4570.77,4556.92,4311.28,3933.85,4230.77,4605.64,4428.72,4635.9,1690,1710,0.53,0,0,0,0,
81,4071.28,4220,4067.18,3868.21,4360,4169.23,4571.28,4556.92,4310.77,3929.23,4231.79,4600.51,4421.03,4628.21,1689,1709,0.538,0,0,0,0,
82,4066.67,4217.95,4066.67,3864.62,4369.23,4166.15,4575.9,4565.13,4314.36,3933.85,4233.85,4600.51,4420.51,4618.46,1690,1710,0.546,0,0,0,0,
83,4063.08,4218.97,4065.13,3861.54,4371.79,4167.18,4580,4571.28,4315.9,3935.9,4230.26,4600.51,4425.64,4617.44,1691,1709,0.554,0,0,0,0,
84,4065.64,4218.46,4066.67,3864.62,4369.74,4167.69,4575.38,4563.08,4311.28,3928.72,4230.77,4602.05,4422.05,4622.56,1691,1710,0.562,0,0,0,0,
85,4073.33,4220,4071.79,3864.1,4368.72,4162.56,4568.72,4553.85,4308.21,3924.1,4232.82,4602.56,4417.44,4624.1,1691,1709,0.57,0,0,0,0,
86,4077.95,4220.51,4074.87,3859.49,4363.59,4159.49,4568.72,4553.33,4310.26,3927.69,4232.82,4603.59,4420.51,4626.15,1691,1710,0.577,0,0,0,0,
87,4077.44,4221.03,4077.95,3871.28,4363.59,4165.13,4570.77,4560,4311.28,3933.33,4234.87,4612.82,4426.15,4630.26,1692,1710,0.585,0,0,0,0,
88,4076.41,4220,4079.49,3873.33,4363.59,4171.79,4571.28,4564.62,4311.79,3934.87,4235.9,4616.92,4428.72,4629.74,1692,1709,0.593,0,0,0,0,
89,4074.87,4214.87,4077.95,3851.79,4353.85,4161.03,4571.28,4564.62,4310.26,3929.23,4232.82,4609.23,4425.13,4628.21,1692,1709,0.601,0,0,0,0,
90,4073.85,4215.38,4081.54,3850.77,4355.9,4150.26,4571.79,4565.64,4308.72,3928.21,4233.85,4612.31,4424.1,4632.82,1691,1709,0.609,0,0,0,0,
91,4076.41,4219.49,4085.64,3869.74,4356.92,4160.51,4573.85,4568.21,4309.23,3931.79,4237.95,4621.03,4428.72,4635.9,1692,1709,0.616,0,0,0,0,
92,4080,4217.44,4077.95,3869.23,4349.23,4168.21,4573.85,4561.03,4308.72,3928.72,4234.36,4614.36,4426.67,4633.85,1691,1708,0.624,0,0,0,0,
93,4076.92,4214.87,4071.79,3853.33,4355.38,4157.44,4570.26,4552.82,4304.62,3925.13,4227.69,4602.05,4417.95,4628.72,1691,1709,0.632,0,0,0,0,
94,4068.72,4211.79,4074.36,3850.26,4361.54,4146.15,4564.1,4550.77,4296.92,3924.1,4227.18,4600,4412.82,4620.51,1691,1708,0.64,0,0,0,0,
95,4071.79,4215.9,4072.82,3861.54,4360.51,4152.31,4567.18,4552.82,4296.41,3926.15,4231.79,4602.05,4415.9,4623.59,1689,1709,0.648,0,0,0,0,
96,4079.49,4218.46,4067.18,3864.62,4355.9,4159.49,4571.28,4552.31,4296.41,3927.18,4230.26,4603.59,4416.92,4632.82,1691,1709,0.656,0,0,0,0,
97,4068.21,4204.62,4064.62,3850.26,4343.59,4146.15,4559.49,4541.54,4281.03,3913.33,4217.44,4597.44,4409.74,4623.59,1690,1709,0.663,0,0,0,0,
98,4058.46,4200.51,4066.15,3848.21,4342.05,4136.92,4554.36,4538.97,4273.85,3904.62,4210.26,4593.85,4406.67,4609.74,1690,1710,0.671,0,0,0,0,
99,4068.21,4215.38,4063.08,3865.64,4356.41,4149.23,4567.69,4551.79,4287.69,3917.44,4221.54,4600,4411.79,4613.85,1689,1709,0.679,0,0,0,0,
100,4073.33,4220,4060,3864.62,4360,4156.92,4570.26,4554.87,4294.87,3927.18,4230.26,4602.56,4418.97,4621.54,1691,1710,0.687,0,0,0,0,
101,4069.74,4214.87,4063.59,3856.92,4360,4151.28,4561.03,4550.26,4295.9,3925.64,4230.77,4601.03,4427.69,4630.77,1690,1709,0.695,0,0,0,0,
102,4074.36,4223.08,4069.23,3867.18,4369.23,4153.85,4564.62,4557.95,4305.13,3928.72,4233.85,4603.59,4431.79,4642.05,1691,1709,0.702,0,0,0,0,
103,4074.36,4219.49,4070.77,3861.54,4356.41,4158.46,4570.77,4561.54,4303.59,3930.77,4230.26,4603.08,4423.59,4635.9,1691,1708,0.71,0,0,0,0,
104,4066.15,4204.62,4069.23,3847.18,4341.03,4153.85,4568.21,4553.85,4295.38,3927.69,4225.64,4599.49,4421.54,4625.64,1691,1709,0.718,0,0,0,0,
105,4065.64,4205.64,4070.26,3854.87,4350.77,4152.31,4567.18,4554.36,4300,3930.77,4229.74,4604.62,4427.69,4630.77,1691,1708,0.726,0,0,0,0,
106,4069.23,4205.64,4073.33,3857.44,4352.82,4152.31,4569.23,4557.95,4303.59,3932.31,4233.85,4610.77,4427.69,4635.38,1690,1710,0.734,0,0,0,0,
107,4068.21,4205.64,4075.9,3851.79,4353.85,4152.31,4569.74,4556.92,4298.46,3929.23,4232.82,4606.15,4425.64,4633.33,1692,1709,0.742,0,0,0,0,
108,4067.18,4210.77,4073.33,3859.49,4369.23,4153.85,4564.1,4553.85,4295.38,3928.21,4229.23,4601.54,4419.49,4629.23,1690,1708,0.749,0,0,0,0,
109,4064.1,4205.13,4068.72,3869.74,4368.21,4154.36,4557.95,4552.31,4295.38,3927.18,4221.03,4601.03,4406.67,4618.97,1690,1709,0.757,0,0,0,0,
110,4061.03,4197.44,4067.69,3859.49,4354.36,4153.33,4557.95,4552.31,4294.87,3925.64,4217.95,4600.51,4405.13,4611.28,1690,1708,0.765,0,0,0,0,
111,4059.49,4200.51,4065.64,3846.67,4354.87,4151.28,4563.59,4553.33,4297.44,3925.64,4223.59,4598.97,4412.31,4618.46,1691,1710,0.773,0,0,0,0,
112,4061.54,4206.15,4068.21,3853.33,4357.95,4152.31,4566.67,4552.82,4301.54,3930.26,4230.77,4602.56,4415.38,4632.31,1691,1709,0.782,0,0,0,0,
113,4066.67,4207.69,4074.36,3861.03,4353.85,4154.87,4561.54,4552.31,4300.51,3931.28,4231.28,4604.62,4418.97,4634.87,1691,1710,0.788,0,0,0,0,
114,4066.15,4207.18,4074.36,3856.92,4352.82,4145.13,4553.33,4549.74,4294.36,3927.18,4222.05,4600.51,4418.97,4624.1,1691,1710,0.796,0,0,0,0,
115,4065.13,4201.54,4073.85,3855.9,4362.56,4140,4558.46,4551.28,4297.95,3929.74,4223.08,4603.08,4416.41,4624.1,1691,1711,0.804,0,0,0,0,
116,4070.77,4205.13,4078.97,3866.15,4373.85,4152.82,4571.28,4557.95,4305.64,3938.46,4233.33,4610.26,4419.49,4635.38,1691,1710,0.812,0,0,0,0,
117,4063.08,4204.62,4070.77,3858.46,4357.95,4156.41,4567.18,4550.77,4292.31,3926.15,4224.1,4602.05,4412.82,4626.67,1691,1708,0.82,0,0,0,0,
118,4047.69,4190.77,4058.97,3842.05,4335.38,4149.23,4558.97,4540,4276.92,3908.21,4209.74,4590.26,4395.38,4610.77,1691,1707,0.828,0,0,0,0,
119,4052.82,4185.64,4064.62,3846.15,4348.72,4155.38,4567.18,4548.72,4288.21,3914.36,4214.36,4596.41,4396.92,4611.28,1692,1708,0.835,0,0,0,0,
120,4062.56,4186.67,4071.28,3850.26,4365.13,4161.03,4574.87,4557.95,4300,3925.13,4217.44,4603.08,4409.74,4614.87,1692,1708,0.844,0,0,0,0,
121,4057.44,4188.72,4068.72,3853.85,4357.44,4155.9,4569.23,4551.28,4294.87,3922.56,4219.49,4598.97,4411.28,4616.41,1692,1709,0.851,0,0,0,0,
122,4056.41,4199.49,4073.85,3863.08,4358.46,4154.87,4568.72,4552.31,4295.38,3924.1,4229.74,4602.05,4413.33,4625.64,1692,1709,0.859,0,0,0,0,
123,4061.54,4200.51,4077.95,3861.54,4369.74,4155.9,4568.72,4554.87,4298.46,3928.72,4226.67,4606.67,4417.95,4629.74,1692,1710,0.867,0,0,0,0,
124,4053.85,4187.69,4068.72,3847.69,4360,4151.28,4556.92,4542.56,4287.69,3921.54,4215.38,4600,4410.77,4622.56,1693,1710,0.874,0,0,0,0,
125,4050.26,4182.05,4066.67,3842.05,4343.08,4148.21,4557.95,4540.51,4284.62,3916.92,4214.36,4595.38,4403.59,4616.41,1691,1710,0.882,0,0,0,0,
126,4061.54,4187.18,4077.44,3849.74,4350.26,4152.82,4571.79,4555.9,4295.38,3925.13,4218.97,4601.54,4409.23,4615.9,1692,1710,0.891,0,0,0,0,
127,4064.1,4193.85,4076.41,3864.1,4366.67,4153.33,4572.82,4558.97,4298.46,3928.21,4217.95,4602.05,4409.23,4617.44,1689,1709,0.898,0,0,0,0,
128,4055.9,4201.03,4067.69,3869.23,4367.18,4156.41,4568.72,4551.28,4293.33,3924.1,4215.9,4595.9,4402.56,4614.87,1690,1711,0.906,0,0,0,0,
0,4058.46,4203.59,4071.28,3864.62,4364.1,4165.13,4573.85,4552.31,4295.9,3923.59,4217.95,4598.46,4407.69,4614.36,1690,1711,0.914,0,0,0,0,
1,4064.62,4200,4079.49,3862.05,4367.18,4161.03,4574.87,4556.41,4299.49,3927.69,4217.95,4605.64,4415.38,4618.97,1690,1711,0.921,0,0,0,0,
2,4060,4198.97,4076.41,3857.44,4362.56,4149.74,4567.18,4553.85,4294.87,3926.67,4221.03,4603.08,4413.85,4617.95,1691,1711,0.929,0,0,0,0,
3,4059.49,4201.03,4074.87,3853.85,4354.36,4149.23,4566.15,4553.85,4295.9,3924.62,4229.74,4603.59,4414.87,4618.97,1691,1710,0.937,0,0,0,0,
4,4069.74,4201.54,4079.49,3860.51,4357.95,4154.36,4569.23,4558.46,4308.72,3931.28,4236.41,4615.9,4426.67,4629.74,1691,1707,0.945,0,0,0,0,
5,4070.26,4200,4080,3862.56,4360,4152.82,4567.18,4559.49,4316.92,3938.97,4234.36,4619.49,4431.79,4634.87,1690,1709,0.953,0,0,0,0,
6,4057.44,4195.9,4072.31,3857.44,4351.28,4153.33,4564.1,4553.33,4305.13,3932.82,4226.67,4604.62,4417.95,4625.64,1691,1708,0.961,0,0,0,0,
7,4058.46,4198.97,4072.31,3861.03,4352.31,4155.9,4565.64,4551.28,4294.36,3922.05,4224.1,4598.97,4410.26,4622.56,1691,1709,0.968,0,0,0,0,
8,4072.82,4203.08,4082.56,3864.62,4365.64,4155.9,4567.18,4553.85,4302.05,3923.08,4229.23,4607.69,4421.54,4629.23,1692,1709,0.976,0,0,0,0,
9,4074.36,4203.08,4081.54,3863.08,4371.79,4153.33,4565.13,4555.9,4306.67,3930.77,4231.28,4606.15,4428.72,4629.74,1691,1709,0.984,0,0,0,0,
10,4067.69,4208.72,4071.28,3864.62,4361.54,4153.85,4563.59,4551.79,4296.41,3925.13,4228.72,4597.95,4422.56,4628.21,1691,1710,0.992,0,0,0,0,
11,4069.74,4211.28,4071.28,3862.05,4351.79,4155.9,4563.59,4542.05,4289.74,3911.79,4227.69,4601.03,4420,4635.38,1691,1708,1,0,0,0,0,
12,4082.05,4208.21,4078.97,3863.08,4357.44,4153.33,4561.03,4543.08,4293.85,3914.87,4228.72,4609.23,4423.59,4652.82,1691,1709,1.007,0,0,0,0,
13,4107.18,4223.08,4088.21,3875.9,4353.85,4152.82,4556.41,4552.31,4295.9,3928.21,4236.92,4620,4435.9,4681.54,1691,1708,1.015,0,0,0,0,
14,4148.72,4248.72,4103.59,3885.13,4335.38,4149.74,4555.9,4548.21,4295.38,3929.23,4247.69,4634.87,4454.36,4720,1691,1710,1.023,0,0,0,0,
15,4199.49,4265.13,4122.56,3890.26,4334.87,4138.46,4554.87,4536.92,4294.36,3920,4248.72,4646.67,4462.56,4761.03,1691,1710,1.031,0,0,0,0,
16,4251.79,4290.77,4144.1,3904.62,4357.44,4132.82,4546.15,4536.41,4286.67,3915.38,4254.36,4660.51,4465.64,4802.56,1691,1711,1.039,0,0,0,0,
17,4289.23,4320.51,4158.46,3917.44,4361.54,4137.44,4538.46,4537.44,4278.46,3911.28,4262.56,4675.38,4475.38,4833.33,1692,1709,1.047,0,0,0,0,
18,4297.44,4324.62,4156.92,3915.9,4349.23,4136.92,4538.97,4534.87,4278.46,3907.69,4252.31,4674.36,4476.92,4837.95,1690,1709,1.054,0,0,0,0,
19,4290.77,4312.82,4156.41,3909.23,4351.79,4134.87,4545.64,4536.41,4284.62,3908.21,4244.62,4666.15,4471.28,4834.36,1691,1709,1.062,0,0,0,0,
20,4281.03,4304.1,4157.44,3911.28,4354.36,4140.51,4553.33,4538.46,4286.67,3910.26,4255.9,4670.77,4475.9,4837.95,1690,1708,1.07,0,0,0,0,
21,4261.54,4295.9,4145.13,3914.36,4349.23,4142.05,4556.41,4538.97,4284.1,3912.31,4258.46,4671.28,4477.44,4828.72,1691,1710,1.078,0,0,0,0,
22,4238.46,4286.67,4135.9,3903.59,4350.77,4143.08,4554.87,4537.95,4280,3912.82,4248.72,4656.41,4465.13,4803.08,1691,1708,1.086,0,0,0,0,
23,4223.08,4276.41,4136.41,3889.23,4353.85,4153.33,4555.9,4535.38,4278.46,3912.31,4247.18,4647.69,4457.44,4776.41,1691,1709,1.093,0,0,0,0,
24,4206.15,4261.54,4127.18,3891.28,4353.33,4150.77,4554.36,4535.38,4278.46,3908.21,4248.72,4647.18,4455.38,4755.38,1692,1707,1.101,0,0,0,0,
25,4186.15,4249.74,4118.46,3900,4355.38,4135.9,4550.26,4535.38,4280,3908.21,4243.08,4641.03,4448.21,4737.44,1691,1708,1.109,0,0,0,0,
26,4171.28,4245.64,4122.05,3894.87,4366.15,4136.41,4552.31,4535.9,4281.03,3912.82,4242.56,4637.95,4443.59,4723.08,1693,1708,1.117,0,0,0,0,
27,4158.97,4241.03,4118.97,3882.56,4370.77,4146.15,4553.85,4537.44,4282.05,3915.9,4246.15,4636.92,4447.18,4712.82,1692,1709,1.125,0,0,0,0,
28,4140.51,4229.23,4104.1,3879.49,4356.92,4138.97,4551.28,4535.9,4285.13,3913.85,4238.46,4626.67,4443.08,4697.95,1692,1709,1.133,0,0,0,0,
29,4120,4217.44,4091.79,3873.85,4347.18,4131.79,4551.28,4534.87,4287.69,3911.28,4228.21,4614.36,4431.79,4672.82,1691,1710,1.14,0,0,0,0,
30,4109.74,4211.79,4089.74,3866.15,4361.54,4142.56,4553.33,4537.44,4289.74,3912.82,4227.69,4613.85,4427.18,4658.97,1691,1710,1.148,0,0,0,0,
31,4108.21,4207.18,4092.82,3869.74,4365.64,4156.92,4555.38,4538.46,4293.33,3913.85,4231.28,4615.38,4428.21,4663.59,1690,1709,1.156,0,0,0,0,
32,4103.08,4201.03,4086.67,3871.28,4349.74,4155.9,4556.92,4537.44,4295.9,3911.28,4230.26,4607.69,4427.18,4660,1690,1710,1.164,0,0,0,0,
33,4087.69,4196.41,4073.85,3862.05,4353.85,4145.13,4555.9,4538.46,4293.85,3912.82,4226.67,4598.97,4424.1,4645.64,1690,1708,1.172,0,0,0,0,
34,4078.46,4196.41,4075.38,3861.54,4374.36,4145.64,4553.85,4540.51,4293.33,3922.56,4228.21,4603.59,4426.15,4645.64,1690,1709,1.18,0,0,0,0,
35,4087.18,4203.59,4087.69,3873.33,4380,4155.9,4555.38,4541.54,4300.51,3931.28,4236.41,4614.87,4433.33,4650.77,1691,1709,1.187,0,0,0,0,
36,4089.74,4199.49,4086.67,3870.26,4363.08,4151.79,4555.9,4539.49,4296.92,3925.13,4232.31,4612.31,4427.69,4639.49,1690,1709,1.195,0,0,0,0,
37,4072.82,4185.13,4074.36,3852.31,4343.08,4137.44,4552.31,4534.36,4279.49,3909.23,4214.36,4597.44,4411.28,4624.62,1692,1709,1.203,0,0,0,0,
38,4067.18,4182.56,4072.82,3847.18,4348.72,4138.97,4549.74,4536.41,4280.51,3906.67,4217.44,4596.41,4413.33,4625.13,1691,1709,1.211,0,0,0,0,
39,4079.49,4189.23,4085.13,3861.03,4370.26,4153.33,4560,4552.82,4302.56,3924.62,4234.87,4607.69,4429.74,4634.36,1692,1709,1.219,0,0,0,0,
40,4077.44,4188.21,4087.18,3871.28,4372.82,4158.97,4571.28,4560.51,4305.64,3931.79,4235.38,4607.69,4430.26,4635.9,1691,1709,1.226,0,0,0,0,
41,4060.51,4182.05,4071.28,3862.56,4362.05,4152.31,4564.62,4545.13,4291.28,3915.9,4224.1,4598.97,4415.38,4626.67,1692,1710,1.234,0,0,0,0,
42,4056.92,4183.59,4065.64,3860,4360,4151.79,4554.36,4539.49,4292.31,3915.38,4226.15,4598.97,4414.36,4618.97,1691,1710,1.242,0,0,0,0,
43,4064.62,4187.69,4075.9,3866.15,4361.54,4158.46,4557.44,4550.26,4300,3924.1,4232.31,4605.13,4421.54,4618.46,1692,1710,1.25,0,0,0,0,
44,4058.97,4181.03,4074.87,3854.87,4356.41,4152.31,4559.49,4546.15,4295.9,3913.85,4223.08,4599.49,4413.33,4616.41,1691,1710,1.258,0,0,0,0,
45,4048.21,4166.67,4062.05,3841.54,4354.36,4143.59,4554.36,4534.87,4289.23,3903.59,4212.31,4587.18,4403.59,4609.74,1691,1710,1.266,0,0,0,0,
46,4052.31,4169.23,4065.64,3851.79,4365.64,4150.26,4554.36,4540,4293.33,3911.79,4214.36,4592.31,4410.77,4611.79,1689,1711,1.273,0,0,0,0,
47,4058.46,4178.97,4077.95,3858.97,4366.15,4155.9,4554.87,4544.62,4297.95,3916.92,4221.03,4602.05,4415.38,4617.44,1690,1710,1.281,0,0,0,0,
48,4050.26,4171.79,4076.92,3846.67,4350.26,4149.74,4554.36,4538.46,4293.33,3910.26,4220.51,4595.9,4406.67,4613.85,1689,1710,1.289,0,0,0,0,
49,4045.64,4173.85,4069.74,3845.13,4350.26,4149.74,4556.92,4544.62,4292.82,3911.79,4217.95,4592.31,4409.23,4609.74,1690,1710,1.297,0,0,0,0,
50,4046.67,4184.1,4071.79,3850.26,4356.92,4153.85,4557.44,4552.31,4297.95,3914.36,4216.41,4598.97,4413.33,4607.18,1689,1709,1.305,0,0,0,0,
51,4038.97,4173.85,4072.82,3846.15,4350.77,4150.77,4555.9,4544.1,4293.33,3911.28,4214.87,4593.33,4404.1,4603.08,1690,1710,1.312,0,0,0,0,
52,4032.82,4165.13,4069.23,3844.1,4351.28,4150.77,4556.41,4538.46,4287.69,3908.72,4216.41,4585.64,4398.97,4603.59,1691,1709,1.32,0,0,0,0,
53,4031.28,4169.23,4067.18,3841.03,4355.9,4153.33,4557.95,4542.05,4290.77,3910.26,4214.87,4590.26,4398.46,4603.59,1691,1711,1.328,0,0,0,0,
54,4034.87,4168.21,4070.26,3835.9,4352.82,4151.79,4555.9,4542.05,4292.31,3911.79,4213.33,4592.31,4392.31,4600,1692,1710,1.336,0,0,0,0,
55,4042.56,4172.82,4073.85,3843.59,4353.33,4149.74,4553.33,4539.49,4289.23,3912.82,4215.9,4587.69,4392.31,4599.49,1692,1710,1.344,0,0,0,0,
56,4041.03,4186.67,4071.79,3856.41,4355.9,4152.31,4552.82,4539.49,4289.23,3912.31,4216.41,4586.67,4400,4600.51,1692,1710,1.352,0,0,0,0,
57,4036.92,4186.67,4070.77,3860.51,4357.95,4152.82,4554.36,4539.49,4292.31,3912.31,4215.38,4587.18,4402.05,4598.97,1691,1710,1.359,0,0,0,0,
58,4042.05,4185.64,4073.85,3855.9,4365.13,4152.31,4555.38,4541.54,4298.46,3917.95,4217.44,4589.74,4401.03,4598.97,1692,1709,1.367,0,0,0,0,
59,4041.54,4187.69,4068.72,3849.74,4356.92,4153.85,4555.38,4542.05,4297.95,3918.46,4214.36,4587.18,4398.97,4600,1691,1710,1.375,0,0,0,0,
60,4028.72,4177.44,4061.54,3844.62,4338.46,4152.82,4554.87,4536.92,4285.64,3908.21,4203.08,4574.87,4392.82,4593.33,1692,1710,1.383,0,0,0,0,
61,4023.59,4171.79,4063.08,3845.13,4342.05,4151.79,4555.9,4534.36,4277.44,3904.1,4197.44,4571.28,4385.64,4585.13,1690,1709,1.391,0,0,0,0,
62,4029.74,4184.62,4066.67,3850.26,4358.46,4155.9,4557.95,4538.97,4280.51,3909.74,4206.67,4582.05,4387.69,4591.28,1691,1710,1.398,0,0,0,0,
63,4036.41,4196.41,4071.28,3849.23,4359.49,4157.95,4558.46,4542.56,4283.59,3912.31,4217.44,4591.28,4394.87,4602.56,1691,1708,1.406,0,0,0,0,
64,4037.95,4198.46,4075.9,3847.18,4359.49,4154.87,4556.92,4541.03,4286.15,3911.79,4217.44,4593.33,4398.46,4602.05,1690,1709,1.414,0,0,0,0,
65,4034.36,4197.44,4071.28,3852.82,4363.59,4156.92,4554.87,4539.49,4289.74,3910.77,4212.31,4587.69,4397.44,4595.38,1691,1708,1.422,0,0,0,0,
66,4033.33,4200,4069.74,3857.44,4362.05,4155.9,4553.33,4543.08,4287.18,3911.79,4214.36,4585.64,4398.97,4596.41,1690,1709,1.43,0,0,0,0,
67,4031.79,4200,4073.85,3847.69,4351.28,4143.08,4553.33,4540.51,4284.62,3915.38,4216.41,4588.21,4398.46,4596.92,1691,1710,1.438,0,0,0,0,
68,4023.59,4188.21,4068.21,3835.9,4331.79,4135.38,4551.28,4529.74,4277.95,3904.62,4204.1,4578.46,4388.72,4584.62,1690,1709,1.445,0,0,0,0,
69,4016.92,4182.05,4059.49,3837.44,4334.36,4136.41,4542.56,4520.51,4266.67,3894.87,4196.41,4567.69,4383.08,4575.38,1691,1709,1.454,0,0,0,0,
70,4022.56,4197.95,4060.51,3845.64,4361.03,4138.46,4537.44,4521.54,4270.26,3905.13,4206.67,4577.95,4389.74,4586.15,1690,1709,1.461,0,0,0,0,
71,4036.92,4214.36,4066.67,3854.36,4371.28,4144.62,4544.62,4528.72,4279.49,3911.28,4216.92,4588.21,4400,4602.05,1691,1709,1.469,0,0,0,0,
72,4046.67,4216.41,4071.28,3861.03,4367.18,4154.36,4552.82,4535.9,4283.59,3910.26,4217.95,4588.72,4409.23,4605.13,1690,1708,1.477,0,0,0,0,
73,4045.64,4217.44,4074.87,3857.95,4367.18,4155.9,4553.85,4537.95,4289.74,3919.49,4218.46,4595.38,4408.72,4602.56,1690,1710,1.484,0,0,0,0,
74,4039.49,4215.9,4075.38,3847.69,4358.97,4154.36,4554.87,4537.44,4291.79,3922.05,4218.46,4596.41,4398.97,4603.08,1691,1709,1.492,0,0,0,0,
75,4036.41,4208.72,4074.36,3842.56,4354.36,4154.36,4556.41,4540.51,4290.26,3914.36,4217.44,4587.18,4395.9,4605.64,1689,1710,1.5,0,0,0,0,
76,4032.82,4204.1,4068.21,3848.21,4360.51,4150.77,4552.31,4540.51,4291.79,3911.79,4216.92,4584.62,4399.49,4603.08,1691,1710,1.508,0,0,0,0,
77,4026.67,4198.97,4060.51,3846.67,4348.21,4151.28,4555.38,4539.49,4294.36,3913.33,4215.9,4585.64,4397.44,4594.87,1690,1710,1.516,0,0,0,0,
78,4027.69,4204.62,4065.13,3842.05,4336.92,4160,4567.69,4549.23,4296.41,3918.46,4217.44,4588.21,4395.9,4596.41,1691,1710,1.524,0,0,0,0,
79,4029.23,4212.82,4071.79,3847.18,4351.28,4156.41,4565.13,4552.31,4298.97,3928.21,4220.51,4592.82,4397.95,4600.51,1691,1708,1.531,0,0,0,0,
80,4025.64,4207.18,4067.69,3846.15,4362.05,4147.69,4553.85,4546.15,4297.44,3929.74,4220.51,4590.26,4397.44,4594.36,1691,1709,1.539,0,0,0,0,
81,4021.54,4197.95,4065.13,3833.33,4348.21,4149.23,4554.36,4544.1,4292.82,3918.97,4213.85,4584.1,4389.74,4585.13,1691,1709,1.547,0,0,0,0,
82,4018.46,4196.92,4066.67,3833.33,4334.87,4145.13,4557.44,4540.51,4287.69,3908.72,4206.15,4581.03,4380.51,4584.1,1692,1709,1.555,0,0,0,0,
83,4023.08,4205.13,4067.18,3850.77,4348.72,4138.97,4552.31,4541.03,4287.69,3913.85,4210.26,4583.59,4386.67,4594.36,1692,1707,1.563,0,0,0,0,
84,4034.36,4210.26,4075.9,3852.31,4363.59,4148.21,4553.85,4551.28,4297.95,3928.21,4225.64,4596.41,4401.03,4604.1,1692,1708,1.57,0,0,0,0,
85,4037.44,4207.18,4084.1,3841.03,4352.31,4155.38,4559.49,4556.41,4306.67,3930.26,4225.64,4604.62,4401.54,4605.64,1693,1708,1.578,0,0,0,0,
86,4036.41,4207.18,4078.46,3852.31,4348.72,4151.28,4556.92,4554.87,4307.18,3927.18,4216.92,4591.79,4396.92,4605.64,1692,1710,1.587,0,0,0,0,
87,4040.51,4212.82,4072.82,3864.62,4365.13,4154.36,4554.87,4552.82,4304.62,3929.23,4219.49,4583.59,4398.46,4608.21,1692,1709,1.594,0,0,0,0,
88,4037.95,4204.62,4071.28,3851.28,4361.03,4155.9,4553.33,4542.56,4295.38,3921.54,4214.87,4587.18,4391.79,4601.54,1691,1710,1.602,0,0,0,0,
89,4028.21,4194.87,4062.56,3839.49,4346.15,4148.21,4549.23,4534.36,4283.59,3908.21,4199.49,4577.44,4382.56,4588.72,1691,1710,1.61,0,0,0,0,
90,4028.21,4200.51,4057.95,3844.1,4349.74,4148.72,4548.21,4534.36,4277.95,3905.64,4197.44,4567.69,4383.59,4584.62,1691,1709,1.617,0,0,0,0,
91,4029.74,4202.05,4062.56,3845.64,4353.85,4153.85,4550.77,4534.87,4278.46,3911.79,4206.15,4577.95,4384.62,4589.23,1690,1710,1.626,0,0,0,0,
92,4026.15,4195.9,4064.1,3843.08,4352.31,4148.72,4551.79,4537.44,4282.56,3913.85,4208.21,4586.67,4382.56,4597.44,1690,1709,1.633,0,0,0,0,
93,4025.64,4198.97,4063.08,3848.72,4358.46,4144.1,4551.28,4540,4283.08,3913.33,4211.79,4584.1,4384.1,4600,1690,1710,1.641,0,0,0,0,
94,4027.69,4199.49,4065.64,3847.18,4355.9,4148.72,4552.31,4537.95,4282.05,3912.31,4212.82,4582.56,4385.13,4595.9,1690,1710,1.649,0,0,0,0,
95,4028.21,4195.38,4068.72,3843.08,4347.69,4151.79,4554.36,4538.46,4284.1,3910.77,4209.23,4585.13,4382.05,4597.44,1689,1711,1.656,0,0,0,0,
96,4028.21,4198.97,4067.69,3845.64,4358.46,4150.77,4555.9,4541.54,4290.77,3915.9,4216.41,4590.26,4386.67,4603.59,1690,1710,1.664,0,0,0,0,
97,4028.72,4205.13,4066.15,3853.33,4370.26,4155.9,4555.38,4542.05,4294.87,3921.03,4222.05,4591.79,4396.92,4599.49,1690,1709,1.673,0,0,0,0,
98,4027.18,4200,4070.77,3850.77,4354.36,4158.97,4557.44,4540.51,4291.79,3915.38,4215.9,4587.69,4396.41,4593.33,1690,1708,1.68,0,0,0,0,
99,4028.21,4195.9,4073.33,3836.92,4342.56,4151.79,4562.56,4540,4291.28,3910.26,4213.85,4588.21,4385.13,4598.97,1691,1709,1.689,0,0,0,0,
100,4033.85,4208.21,4071.28,3841.03,4356.41,4156.92,4565.64,4542.05,4294.87,3914.87,4218.97,4591.28,4386.15,4604.1,1691,1709,1.697,0,0,0,0,
101,4037.44,4211.28,4074.36,3850.26,4353.85,4167.69,4568.21,4542.56,4294.87,3914.87,4217.44,4588.21,4396.41,4604.62,1691,1709,1.703,0,0,0,0,
102,4036.41,4200,4076.41,3840.51,4338.97,4157.44,4567.18,4541.54,4292.31,3910.26,4214.36,4585.13,4393.33,4598.46,1691,1708,1.711,0,0,0,0,
103,4031.79,4203.59,4069.23,3838.97,4350.77,4146.67,4558.46,4541.54,4295.38,3909.74,4215.9,4585.64,4384.1,4588.72,1690,1709,1.719,0,0,0,0,
104,4027.18,4215.9,4063.08,3852.31,4357.95,4146.15,4550.26,4540,4287.69,3909.23,4212.82,4584.1,4385.13,4588.21,1692,1707,1.727,0,0,0,0,
105,4029.23,4213.85,4064.1,3850.77,4344.1,4142.05,4550.26,4536.92,4278.46,3909.23,4209.74,4583.59,4391.79,4596.92,1690,1708,1.735,0,0,0,0,
106,4035.38,4214.36,4067.69,3845.13,4345.13,4146.15,4554.87,4539.49,4288.21,3910.26,4214.36,4587.18,4394.87,4600.51,1691,1708,1.743,0,0,0,0,
107,4035.9,4219.49,4069.23,3851.28,4355.38,4156.41,4557.44,4543.59,4294.36,3909.23,4219.49,4588.21,4397.44,4598.97,1689,1709,1.75,0,0,0,0,
108,4032.31,4207.18,4065.64,3845.64,4338.97,4143.59,4553.85,4537.95,4280,3907.18,4215.38,4584.62,4394.87,4598.97,1691,1710,1.758,0,0,0,0,
109,4036.41,4202.05,4066.15,3845.13,4332.82,4134.87,4550.77,4533.85,4279.49,3908.21,4212.31,4583.08,4392.82,4604.1,1691,1709,1.766,0,0,0,0,
110,4044.62,4217.95,4074.36,3859.49,4358.97,4153.85,4560.51,4547.69,4300.51,3912.82,4226.15,4594.87,4403.08,4614.36,1690,1711,1.774,0,0,0,0,
111,4045.64,4221.03,4078.46,3855.9,4370.26,4160.51,4565.64,4557.44,4304.62,3914.87,4237.44,4606.15,4409.23,4620,1691,1710,1.782,0,0,0,0,
112,4042.05,4211.28,4076.41,3842.56,4351.28,4144.1,4555.9,4542.56,4290.77,3911.79,4224.1,4595.9,4402.56,4615.38,1690,1710,1.789,0,0,0,0,
113,4044.62,4213.33,4073.85,3849.74,4340.51,4140.51,4550.77,4532.82,4290.26,3908.21,4213.85,4587.18,4401.54,4609.74,1690,1710,1.797,0,0,0,0,
114,4052.82,4218.97,4076.92,3864.62,4351.79,4153.85,4556.92,4547.69,4301.03,3912.31,4225.64,4598.46,4407.69,4612.82,1689,1710,1.805,0,0,0,0,
115,4054.87,4216.41,4086.15,3865.64,4360.51,4157.44,4561.03,4557.95,4302.05,3918.97,4234.36,4608.72,4409.74,4623.59,1691,1709,1.813,0,0,0,0,
116,4052.31,4214.87,4087.18,3857.95,4358.97,4149.74,4557.44,4550.26,4292.31,3914.87,4230.26,4604.1,4409.74,4624.62,1689,1709,1.821,0,0,0,0,
117,4053.33,4214.87,4082.05,3854.87,4355.38,4151.79,4555.9,4548.72,4291.79,3915.38,4229.23,4604.62,4413.33,4616.41,1692,1707,1.829,0,0,0,0,
118,4056.41,4213.33,4082.56,3852.31,4346.67,4153.33,4557.44,4555.38,4297.44,3923.59,4234.36,4610.77,4413.85,4615.38,1691,1708,1.836,0,0,0,0,
119,4052.31,4210.26,4085.64,3849.23,4341.03,4141.03,4556.92,4548.21,4294.36,3918.97,4233.33,4608.21,4409.74,4620.51,1692,1709,1.844,0,0,0,0,
120,4046.15,4209.23,4081.54,3856.92,4353.33,4141.03,4553.33,4536.41,4290.26,3909.74,4224.1,4600.51,4407.69,4619.49,1692,1708,1.852,0,0,0,0,
121,4044.62,4207.69,4076.41,3864.62,4363.59,4154.87,4554.87,4542.56,4292.82,3911.79,4215.9,4596.92,4405.13,4615.38,1692,1710,1.86,0,0,0,0,
122,4048.21,4202.05,4076.92,3851.79,4358.46,4154.87,4558.97,4554.36,4296.92,3915.38,4220,4597.44,4400,4617.95,1692,1710,1.868,0,0,0,0,
123,4045.13,4198.97,4075.9,3842.56,4353.33,4148.72,4557.44,4554.36,4296.92,3910.77,4218.97,4592.31,4394.36,4617.44,1691,1710,1.875,0,0,0,0,
124,4033.33,4202.05,4068.21,3852.31,4356.92,4152.31,4555.9,4549.23,4294.36,3909.23,4206.15,4584.62,4390.26,4605.64,1692,1710,1.883,0,0,0,0,
125,4034.36,4203.59,4065.64,3854.87,4360.51,4156.92,4567.18,4550.77,4295.38,3911.28,4207.18,4586.15,4389.23,4600.51,1691,1710,1.891,0,0,0,0,
126,4043.08,4199.49,4069.23,3844.62,4354.36,4155.38,4573.85,4555.38,4298.46,3912.82,4215.9,4588.21,4388.21,4608.21,1690,1709,1.899,0,0,0,0,
127,4038.46,4197.95,4067.69,3845.64,4350.77,4154.36,4562.05,4550.77,4296.92,3912.82,4214.87,4585.64,4389.23,4609.23,1689,1709,1.907,0,0,0,0,
128,4030.26,4195.9,4065.64,3851.28,4358.97,4155.38,4553.85,4543.08,4294.87,3911.79,4213.85,4585.64,4388.21,4599.49,1691,1710,1.915,0,0,0,0,
0,4029.74,4188.21,4066.15,3842.05,4355.38,4154.36,4557.95,4540.51,4296.41,3912.31,4216.92,4587.18,4383.08,4596.41,1690,1709,1.922,0,0,0,0,
1,4027.69,4181.03,4065.64,3833.85,4340,4151.79,4557.95,4543.08,4294.87,3911.79,4213.33,4584.62,4378.46,4601.03,1690,1710,1.93,0,0,0,0,
2,4026.67,4185.13,4066.15,3844.1,4345.13,4151.79,4554.87,4545.64,4296.41,3912.31,4212.82,4585.64,4379.49,4603.08,1691,1708,1.938,0,0,0,0,
3,4031.28,4189.74,4066.67,3851.28,4350.26,4151.79,4555.38,4544.1,4298.46,3911.79,4216.92,4588.21,4381.54,4599.49,1691,1710,1.946,0,0,0,0,
4,4030.26,4183.08,4069.23,3844.1,4335.9,4149.74,4555.9,4539.49,4287.69,3908.72,4213.85,4584.62,4376.92,4596.92,1692,1709,1.954,0,0,0,0,
5,4035.38,4187.69,4074.87,3848.21,4351.28,4149.23,4556.41,4537.95,4284.62,3909.23,4212.82,4588.72,4378.46,4603.59,1691,1710,1.961,0,0,0,0,
6,4049.74,4204.62,4079.49,3855.9,4376.41,4152.82,4557.95,4542.56,4295.9,3910.77,4217.95,4601.03,4387.18,4609.23,1692,1709,1.969,0,0,0,0,
7,4050.77,4205.64,4078.97,3844.62,4353.85,4154.36,4557.44,4541.54,4292.31,3907.18,4217.95,4601.03,4383.59,4610.77,1692,1710,1.977,0,0,0,0,
8,4042.05,4196.41,4076.92,3845.13,4336.92,4148.21,4555.9,4538.97,4282.56,3905.64,4214.36,4594.36,4374.36,4613.33,1692,1709,1.985,0,0,0,0,
9,4046.15,4202.56,4077.44,3866.15,4358.97,4143.08,4555.9,4547.18,4293.33,3911.28,4217.44,4597.44,4378.46,4619.49,1692,1710,1.993,0,0,0,0,
10,4051.79,4204.62,4074.87,3867.18,4358.46,4140,4554.87,4549.74,4302.56,3914.36,4220,4598.97,4384.62,4619.49,1691,1709,2.001,0,0,0,0,
11,4041.54,4193.33,4067.18,3845.64,4340,4137.95,4551.79,4539.49,4292.82,3910.26,4214.87,4591.79,4380.51,4607.18,1690,1710,2.008,0,0,0,0,
12,4039.49,4196.41,4069.23,3846.67,4351.79,4143.59,4552.82,4540,4297.95,3916.92,4220,4593.33,4380,4606.67,1690,1711,2.016,0,0,0,0,
13,4048.21,4204.1,4077.95,3863.08,4362.56,4156.92,4557.95,4555.9,4312.82,3929.74,4229.23,4600,4387.69,4619.49,1690,1709,2.024,0,0,0,0,
14,4043.08,4192.82,4075.38,3856.41,4350.77,4155.9,4557.95,4553.33,4305.13,3923.59,4223.08,4601.03,4383.59,4615.9,1689,1711,2.032,0,0,0,0,
15,4033.85,4182.05,4072.31,3842.05,4350.26,4142.05,4555.9,4538.97,4290.26,3909.23,4214.87,4599.49,4372.31,4605.64,1690,1708,2.04,0,0,0,0,
16,4036.41,4182.05,4072.82,3842.56,4350.77,4135.9,4554.36,4538.46,4292.31,3907.69,4215.38,4594.36,4372.31,4606.67,1689,1709,2.048,0,0,0,0,
17,4034.87,4183.59,4066.67,3848.72,4341.54,4135.9,4549.74,4540,4293.33,3911.28,4214.36,4589.23,4379.49,4606.15,1690,1709,2.055,0,0,0,0,
18,4033.33,4186.67,4066.15,3852.31,4345.64,4140.51,4548.72,4535.9,4281.54,3910.26,4216.92,4595.38,4385.64,4607.18,1691,1709,2.063,0,0,0,0,
19,4042.05,4187.69,4073.85,3855.38,4354.87,4143.59,4552.31,4537.44,4278.97,3909.23,4228.21,4603.59,4389.74,4618.97,1691,1710,2.071,0,0,0,0,
20,4047.18,4187.69,4074.87,3853.85,4348.72,4137.95,4550.26,4537.95,4287.18,3913.85,4231.28,4602.56,4391.79,4619.49,1691,1710,2.079,0,0,0,0,
21,4042.56,4193.85,4074.87,3852.31,4347.18,4132.82,4549.74,4538.97,4294.87,3923.59,4229.74,4600.51,4394.87,4615.38,1692,1710,2.087,0,0,0,0,
22,4044.62,4202.05,4078.46,3854.87,4362.05,4141.54,4556.41,4550.77,4304.1,3932.82,4236.41,4605.64,4398.46,4626.15,1692,1709,2.094,0,0,0,0,
23,4046.67,4199.49,4076.41,3852.82,4361.54,4153.33,4556.92,4550.26,4305.13,3926.15,4235.38,4604.62,4391.28,4630.26,1692,1710,2.102,0,0,0,0,
24,4045.13,4196.92,4074.36,3850.26,4348.21,4153.33,4554.36,4537.44,4292.82,3911.28,4222.05,4593.85,4382.05,4618.46,1692,1709,2.114,0,0,0,0,
25,4044.1,4197.95,4074.87,3852.31,4351.79,4145.13,4554.87,4532.82,4281.03,3907.69,4214.87,4585.64,4386.67,4614.87,1692,1709,2.118,0,0,0,0,
26,4036.41,4190.77,4068.21,3853.33,4351.79,4136.92,4550.77,4529.23,4279.49,3910.77,4215.38,4585.13,4384.62,4616.92,1691,1709,2.126,0,0,0,0,
27,4028.72,4186.15,4058.46,3848.21,4338.97,4143.59,4548.72,4525.64,4284.62,3909.74,4214.36,4583.59,4376.41,4613.85,1691,1709,2.133,0,0,0,0,
28,4033.85,4195.9,4058.46,3847.69,4346.67,4155.38,4552.31,4535.38,4294.87,3907.69,4217.44,4585.13,4382.56,4613.33,1690,1709,2.141,0,0,0,0,
29,4038.97,4202.56,4066.67,3850.26,4365.13,4147.69,4551.79,4542.05,4298.97,3910.26,4221.03,4590.26,4391.28,4616.41,1691,1709,2.15,0,0,0,0,
30,4035.38,4198.46,4073.85,3846.15,4356.92,4137.44,4549.23,4535.38,4287.18,3910.26,4219.49,4590.26,4387.18,4614.87,1690,1709,2.157,0,0,0,0,
31,4034.87,4199.49,4075.38,3853.85,4348.21,4142.56,4551.79,4535.38,4281.03,3910.77,4221.54,4593.33,4384.1,4614.87,1690,1710,2.165,0,0,0,0,
32,4037.95,4203.59,4074.36,3862.56,4357.95,4144.1,4552.31,4540,4286.15,3912.31,4225.13,4597.44,4389.74,4622.05,1691,1708,2.173,0,0,0,0,
33,4036.41,4200,4074.36,3852.82,4362.05,4143.59,4552.31,4538.97,4283.59,3911.28,4218.97,4590.77,4390.77,4617.44,1690,1710,2.18,0,0,0,0,
34,4033.85,4199.49,4073.85,3847.69,4356.41,4149.23,4554.87,4533.33,4276.92,3908.72,4213.33,4584.1,4384.62,4603.08,1691,1709,2.188,0,0,0,0,
35,4029.74,4202.56,4069.74,3852.31,4353.85,4142.05,4551.79,4526.15,4277.44,3907.69,4213.33,4584.1,4380,4601.03,1691,1710,2.196,0,0,0,0,
36,4028.21,4200.51,4065.64,3849.23,4349.23,4137.95,4550.26,4524.62,4281.54,3910.77,4215.38,4584.1,4381.54,4609.74,1692,1710,2.204,0,0,0,0,
37,4031.79,4199.49,4065.13,3851.28,4350.26,4149.23,4550.77,4524.1,4280.51,3910.26,4215.38,4582.05,4383.59,4611.28,1692,1709,2.212,0,0,0,0,
38,4035.38,4207.69,4070.26,3861.54,4361.54,4145.64,4543.08,4526.15,4282.56,3908.72,4215.9,4586.15,4383.08,4611.28,1692,1709,2.22,0,0,0,0,
39,4042.05,4216.92,4076.92,3865.13,4366.67,4136.41,4541.54,4535.38,4292.31,3920.51,4226.67,4594.36,4389.74,4622.05,1691,1709,2.227,0,0,0,0,
40,4048.72,4217.44,4081.03,3865.13,4360.51,4141.54,4549.74,4542.56,4299.49,3931.79,4232.82,4595.9,4398.46,4627.18,1692,1709,2.235,0,0,0,0,
41,4046.15,4206.15,4077.44,3850.26,4346.15,4141.03,4546.15,4536.41,4290.77,3924.1,4222.56,4590.77,4392.82,4615.9,1691,1708,2.243,0,0,0,0,
42,4035.9,4198.46,4068.72,3834.87,4338.97,4133.85,4536.92,4523.59,4274.87,3911.79,4212.82,4584.1,4383.08,4606.15,1691,1711,2.251,0,0,0,0,
43,4027.18,4198.46,4061.03,3844.1,4343.59,4134.36,4536.92,4517.44,4264.62,3901.54,4207.18,4575.38,4379.49,4608.21,1691,1708,2.259,0,0,0,0,
44,4029.23,4198.46,4060.51,3852.82,4349.74,4135.9,4539.49,4520,4261.03,3893.85,4203.08,4573.85,4374.87,4609.23,1690,1710,2.266,0,0,0,0,
45,4040,4207.69,4066.67,3855.38,4360.51,4137.95,4540.51,4524.62,4270.77,3902.56,4211.79,4585.13,4379.49,4610.26,1692,1709,2.274,0,0,0,0,
46,4042.56,4217.95,4069.74,3863.59,4370.26,4141.03,4541.03,4522.05,4277.44,3910.26,4219.49,4588.21,4390.26,4616.92,1690,1709,2.282,0,0,0,0,
47,4029.74,4208.72,4061.54,3858.46,4357.95,4137.44,4537.44,4517.44,4267.69,3898.97,4205.13,4573.85,4382.56,4611.28,1691,1709,2.29,0,0,0,0,
48,4027.18,4196.41,4056.92,3847.69,4341.54,4134.36,4534.87,4518.97,4269.74,3897.44,4200,4569.23,4372.82,4597.95,1691,1709,2.298,0,0,0,0,
49,4037.95,4201.03,4064.62,3850.26,4347.18,4137.95,4538.97,4523.08,4287.69,3913.33,4214.87,4581.54,4380.51,4602.05,1691,1711,2.306,0,0,0,0,
50,4042.56,4204.62,4070.77,3848.21,4355.38,4141.03,4541.54,4524.62,4291.28,3922.05,4218.97,4588.21,4383.59,4616.41,1691,1710,2.313,0,0,0,0,
51,4038.97,4201.54,4069.74,3850.26,4350.77,4139.49,4539.49,4528.72,4289.74,3924.1,4218.46,4590.26,4384.62,4620,1690,1711,2.321,0,0,0,0,
52,4035.9,4200.51,4068.21,3862.56,4348.21,4133.85,4541.54,4536.41,4296.41,3928.72,4226.15,4594.87,4391.79,4616.41,1690,1710,2.329,0,0,0,0,
53,4035.38,4200.51,4068.21,3857.44,4354.36,4138.46,4553.33,4541.03,4293.33,3929.23,4225.64,4595.9,4393.85,4613.85,1691,1710,2.337,0,0,0,0,
54,4034.36,4201.54,4068.72,3845.64,4358.97,4151.28,4558.46,4535.9,4282.56,3921.54,4218.97,4590.77,4387.69,4610.26,1692,1708,2.345,0,0,0,0,
55,4031.28,4200.51,4067.69,3849.23,4354.36,4148.21,4546.15,4523.59,4272.31,3909.74,4212.31,4584.62,4378.97,4603.59,1690,1709,2.352,0,0,0,0,
56,4028.21,4198.46,4059.49,3852.82,4350.26,4134.87,4536.41,4516.41,4263.59,3905.13,4202.56,4573.85,4372.82,4597.95,1692,1708,2.36,0,0,0,0,
57,4030.26,4200,4056.92,3848.72,4353.33,4134.36,4538.97,4520,4268.72,3909.23,4203.59,4567.69,4377.95,4597.44,1691,1708,2.368,0,0,0,0,
58,4035.38,4204.1,4060,3848.72,4351.28,4141.03,4540.51,4522.56,4277.95,3913.85,4215.38,4572.82,4386.15,4605.64,1692,1708,2.376,0,0,0,0,
59,4035.9,4208.21,4055.9,3849.23,4349.23,4137.95,4535.9,4517.95,4277.44,3913.33,4216.92,4574.87,4383.59,4613.33,1692,1708,2.384,0,0,0,0,
60,4033.33,4206.67,4053.33,3846.67,4354.36,4133.33,4533.33,4516.41,4276.41,3912.82,4211.79,4568.21,4378.97,4605.13,1692,1711,2.392,0,0,0,0,
61,4035.9,4203.59,4060,3857.44,4361.03,4134.36,4536.92,4522.05,4283.08,3920.51,4214.36,4572.31,4386.15,4602.05,1692,1711,2.399,0,0,0,0,
62,4037.44,4203.08,4063.08,3863.08,4360,4138.46,4539.49,4527.18,4284.1,3922.56,4214.36,4581.03,4391.79,4613.85,1692,1711,2.407,0,0,0,0,
63,4034.87,4200.51,4060,3847.69,4351.79,4140.51,4540.51,4522.56,4277.44,3911.79,4213.33,4577.95,4384.62,4608.21,1691,1710,2.415,0,0,0,0,
64,4035.38,4196.92,4062.56,3847.69,4354.36,4138.46,4544.1,4524.1,4280,3908.21,4214.87,4575.38,4377.44,4600.51,1691,1710,2.423,0,0,0,0,
65,4038.46,4196.92,4067.69,3862.05,4353.85,4140,4551.79,4535.9,4287.18,3914.87,4216.41,4582.56,4384.1,4613.85,1692,1709,2.431,0,0,0,0,
66,4037.44,4198.97,4068.72,3855.9,4345.13,4140.51,4553.33,4533.33,4283.08,3913.33,4216.41,4587.69,4389.74,4620.51,1690,1710,2.438,0,0,0,0,
67,4033.85,4198.97,4066.67,3844.1,4349.74,4141.03,4548.72,4521.03,4273.85,3908.21,4216.92,4585.13,4383.59,4612.82,1691,1710,2.446,0,0,0,0,
68,4033.85,4199.49,4067.18,3847.18,4357.95,4149.74,4551.28,4526.15,4276.41,3908.72,4214.87,4585.64,4378.46,4611.28,1690,1710,2.454,0,0,0,0,
69,4038.97,4198.46,4071.79,3852.31,4355.38,4154.87,4556.92,4539.49,4287.69,3910.26,4213.33,4591.28,4380.51,4613.85,1691,1711,2.462,0,0,0,0,
70,4045.64,4201.54,4075.38,3863.08,4359.49,4143.59,4555.38,4540.51,4295.38,3912.82,4215.9,4591.79,4386.67,4617.44,1691,1709,2.47,0,0,0,0,
71,4046.15,4200,4077.95,3862.56,4354.36,4134.87,4551.79,4537.44,4291.79,3911.28,4216.92,4590.26,4381.54,4618.97,1690,1710,2.478,0,0,0,0,
72,4044.1,4196.41,4078.46,3845.64,4341.54,4141.54,4553.33,4539.49,4289.74,3908.21,4214.87,4594.87,4376.92,4614.87,1691,1708,2.485,0,0,0,0,
73,4046.15,4200.51,4074.36,3851.28,4356.92,4148.21,4554.87,4541.03,4295.9,3909.74,4217.95,4600.51,4387.69,4617.95,1690,1709,2.493,0,0,0,0,
74,4041.03,4202.05,4065.64,3859.49,4359.49,4143.08,4551.28,4537.95,4289.74,3911.28,4218.97,4591.79,4387.18,4616.92,1691,1709,2.501,0,0,0,0,
75,4035.38,4196.92,4065.13,3847.69,4341.03,4140.51,4550.77,4534.87,4283.59,3910.26,4214.87,4583.08,4374.87,4609.23,1692,1709,2.509,0,0,0,0,
76,4045.64,4197.95,4074.36,3851.79,4352.31,4147.18,4554.87,4538.97,4293.85,3911.79,4214.87,4590.77,4380.51,4614.87,1691,1709,2.517,0,0,0,0,
77,4055.9,4202.56,4078.97,3869.74,4363.59,4152.31,4555.38,4537.95,4294.36,3912.82,4219.49,4596.92,4392.31,4623.08,1691,1709,2.524,0,0,0,0,
78,4047.18,4200,4075.9,3861.03,4342.56,4149.23,4547.69,4526.15,4280,3908.72,4217.44,4592.82,4383.08,4616.41,1691,1709,2.532,0,0,0,0,
79,4043.59,4197.44,4073.85,3844.1,4335.38,4148.72,4547.18,4520.51,4275.9,3905.13,4215.9,4591.28,4376.41,4614.87,1691,1709,2.54,0,0,0,0,
80,4055.38,4199.49,4076.41,3853.85,4351.28,4152.82,4551.79,4524.62,4281.54,3908.72,4222.56,4599.49,4389.23,4625.13,1691,1709,2.548,0,0,0,0,
81,4058.97,4201.03,4078.46,3865.13,4358.97,4148.21,4546.15,4525.13,4283.08,3909.74,4224.62,4604.1,4392.82,4623.59,1691,1710,2.556,0,0,0,0,
82,4047.18,4200.51,4076.41,3861.03,4356.92,4142.56,4539.49,4522.56,4278.46,3901.54,4220,4596.92,4382.05,4616.92,1692,1710,2.564,0,0,0,0,
83,4040,4191.79,4069.23,3849.74,4343.08,4141.54,4538.46,4520,4269.23,3892.82,4209.74,4586.15,4374.36,4615.38,1691,1710,2.571,0,0,0,0,
84,4043.08,4180.51,4065.13,3843.59,4333.33,4138.97,4541.54,4521.54,4271.28,3892.82,4202.56,4582.56,4377.95,4614.36,1692,1709,2.579,0,0,0,0,
85,4049.23,4187.69,4069.23,3852.31,4353.33,4140.51,4546.67,4527.69,4280.51,3902.05,4208.72,4586.15,4380.51,4617.95,1691,1710,2.587,0,0,0,0,
86,4052.82,4201.03,4075.9,3862.56,4366.67,4145.64,4548.21,4534.36,4283.59,3908.21,4218.46,4593.33,4380,4624.62,1692,1709,2.595,0,0,0,0,
87,4051.28,4201.54,4077.95,3858.46,4355.9,4139.49,4543.08,4535.38,4289.23,3911.79,4218.97,4595.9,4386.67,4621.54,1690,1709,2.603,0,0,0,0,
88,4052.31,4195.38,4074.36,3850.26,4348.72,4135.38,4541.54,4530.77,4293.85,3910.77,4217.95,4592.31,4387.69,4614.87,1691,1711,2.61,0,0,0,0,
89,4052.82,4189.74,4072.82,3851.28,4336.41,4145.64,4546.67,4523.59,4285.13,3901.54,4221.54,4589.23,4378.46,4618.97,1691,1708,2.618,0,0,0,0,
90,4044.1,4183.59,4071.79,3849.23,4318.97,4145.13,4542.56,4518.46,4273.85,3893.33,4214.87,4586.15,4373.85,4616.92,1690,1709,2.626,0,0,0,0,
91,4042.05,4184.62,4070.77,3847.69,4342.56,4134.87,4537.44,4524.1,4279.49,3901.03,4212.31,4588.72,4386.15,4612.31,1691,1708,2.634,0,0,0,0,
92,4052.31,4188.72,4075.9,3850.77,4370.26,4135.9,4544.62,4537.44,4292.82,3913.33,4225.13,4599.49,4400,4624.62,1691,1709,2.642,0,0,0,0,
93,4051.79,4185.64,4075.38,3850.26,4353.33,4141.03,4552.82,4541.54,4295.38,3912.82,4227.69,4602.56,4397.95,4630.77,1693,1708,2.65,0,0,0,0,
94,4045.64,4184.62,4069.74,3853.85,4344.1,4140.51,4553.33,4536.92,4290.26,3909.23,4218.97,4596.92,4389.23,4620,1692,1708,2.657,0,0,0,0,
95,4049.74,4188.21,4072.31,3862.05,4357.95,4138.46,4552.82,4536.92,4291.79,3911.79,4217.95,4598.46,4389.74,4616.41,1692,1708,2.665,0,0,0,0,
96,4054.87,4188.21,4080,3864.62,4351.79,4140,4553.85,4538.97,4291.28,3911.28,4223.59,4602.05,4390.26,4618.97,1691,1709,2.673,0,0,0,0,
97,4049.74,4182.05,4076.92,3858.97,4329.74,4140.51,4551.79,4534.87,4276.92,3900.51,4215.38,4594.87,4380,4611.79,1692,1709,2.681,0,0,0,0,
98,4047.69,4183.08,4071.79,3854.87,4337.44,4138.97,4552.31,4533.85,4279.49,3898.46,4211.79,4591.28,4382.05,4614.36,1691,1708,2.689,0,0,0,0,
99,4055.9,4198.46,4077.95,3859.49,4366.15,4137.44,4555.9,4541.03,4296.41,3911.28,4226.15,4602.05,4393.85,4629.23,1690,1709,2.697,0,0,0,0,
100,4061.03,4202.56,4082.05,3864.62,4360.51,4141.03,4553.33,4538.97,4290.77,3916.92,4228.21,4605.64,4393.85,4628.72,1691,1709,2.704,0,0,0,0,
101,4051.28,4187.18,4071.79,3856.41,4327.69,4138.46,4544.1,4524.1,4274.36,3907.18,4214.36,4588.21,4384.62,4615.38,1689,1711,2.712,0,0,0,0,
102,4042.05,4176.92,4065.64,3842.56,4327.69,4132.82,4543.08,4525.13,4281.54,3905.13,4216.41,4581.03,4385.13,4611.28,1691,1710,2.72,0,0,0,0,
103,4053.85,4188.72,4078.46,3849.23,4362.56,4141.03,4554.36,4546.67,4303.08,3922.56,4234.36,4599.49,4397.95,4625.13,1689,1711,2.728,0,0,0,0,
104,4066.15,4196.41,4085.64,3866.15,4369.23,4150.77,4557.44,4551.79,4309.23,3929.74,4237.95,4610.26,4406.67,4637.95,1691,1711,2.736,0,0,0,0,
105,4056.41,4188.21,4074.87,3865.64,4348.72,4144.62,4550.77,4539.49,4296.41,3918.46,4229.74,4601.03,4397.95,4629.23,1691,1711,2.743,0,0,0,0,
106,4042.56,4182.05,4070.77,3851.28,4345.13,4137.95,4550.26,4536.41,4283.08,3908.21,4222.56,4590.77,4381.54,4615.38,1691,1710,2.751,0,0,0,0,
107,4045.13,4184.1,4075.38,3847.69,4352.31,4142.56,4553.85,4537.44,4280.51,3899.49,4215.38,4586.15,4378.97,4615.9,1691,1709,2.759,0,0,0,0,
108,4051.79,4184.1,4074.87,3855.38,4350.77,4144.62,4551.79,4536.41,4282.56,3893.33,4214.87,4590.26,4380.51,4615.9,1692,1709,2.767,0,0,0,0,
109,4051.28,4183.59,4073.85,3855.9,4341.03,4141.54,4551.28,4538.97,4281.54,3904.62,4216.92,4596.41,4376.92,4610.26,1691,1708,2.775,0,0,0,0,
110,4047.18,4185.13,4074.36,3850.77,4331.79,4140,4552.82,4538.46,4280.51,3909.74,4210.77,4589.74,4372.31,4613.85,1691,1708,2.783,0,0,0,0,
111,4042.05,4181.03,4073.33,3845.13,4333.85,4138.46,4547.18,4535.38,4281.03,3898.46,4205.64,4581.03,4372.31,4615.38,1692,1707,2.79,0,0,0,0,
112,4046.15,4180,4073.85,3844.62,4347.69,4137.95,4544.62,4535.9,4281.03,3902.56,4212.82,4589.23,4380,4612.82,1691,1709,2.798,0,0,0,0,
113,4057.95,4186.67,4078.97,3856.92,4360.51,4138.46,4549.74,4537.44,4281.03,3913.85,4220.51,4601.54,4385.13,4623.08,1693,1708,2.806,0,0,0,0,
114,4060,4188.72,4082.56,3860,4354.36,4136.92,4547.18,4537.95,4279.49,3909.23,4216.41,4603.08,4382.56,4628.21,1691,1709,2.814,0,0,0,0,
115,4051.79,4181.03,4082.05,3846.67,4334.87,4134.87,4545.13,4537.44,4278.46,3906.15,4211.79,4597.95,4383.59,4619.49,1691,1711,2.822,0,0,0,0,
116,4052.31,4180.51,4081.03,3850.26,4336.92,4136.92,4552.82,4539.49,4286.67,3913.33,4225.13,4599.49,4394.87,4626.15,1689,1710,2.829,0,0,0,0,
117,4060.51,4194.36,4080.51,3869.23,4361.54,4138.46,4555.9,4543.59,4289.74,3915.38,4233.33,4603.08,4397.95,4638.97,1690,1712,2.837,0,0,0,0,
118,4065.64,4201.03,4078.97,3865.13,4356.41,4138.97,4550.26,4536.41,4280.51,3909.23,4222.05,4599.49,4390.26,4638.46,1690,1711,2.845,0,0,0,0,
119,4079.49,4201.54,4080.51,3855.38,4329.74,4140.51,4547.18,4523.08,4275.9,3905.13,4217.95,4597.95,4390.77,4653.33,1690,1711,2.853,0,0,0,0,
120,4114.87,4224.1,4091.79,3872.31,4344.1,4140,4543.08,4521.54,4282.05,3909.74,4230.77,4608.21,4404.1,4694.87,1689,1710,2.861,0,0,0,0,
121,4167.18,4261.03,4112.31,3896.92,4370.26,4135.38,4538.46,4527.18,4283.59,3912.31,4239.49,4626.15,4418.46,4735.9,1690,1711,2.869,0,0,0,0,
122,4223.59,4286.67,4133.85,3909.23,4361.03,4129.23,4541.54,4524.1,4274.87,3903.59,4242.05,4642.56,4427.18,4779.49,1691,1709,2.876,0,0,0,0,
123,4272.31,4305.64,4152.31,3913.85,4348.21,4123.08,4541.03,4517.95,4265.13,3894.87,4246.15,4655.38,4434.87,4822.56,1691,1710,2.884,0,0,0,0,
124,4301.54,4327.18,4165.64,3922.05,4348.21,4118.46,4537.44,4518.46,4263.59,3895.9,4246.67,4666.15,4442.05,4848.21,1692,1708,2.892,0,0,0,0,
125,4310.77,4335.9,4170.26,3931.28,4346.15,4121.54,4537.44,4520.51,4266.15,3896.41,4248.72,4675.38,4444.1,4862.56,1692,1708,2.9,0,0,0,0,
126,4301.03,4326.15,4168.72,3925.64,4341.54,4121.54,4536.41,4518.46,4262.05,3893.85,4249.74,4674.87,4442.05,4858.46,1693,1709,2.908,0,0,0,0,
127,4280,4311.79,4169.74,3913.85,4340.51,4119.49,4540.51,4523.08,4264.62,3901.03,4250.77,4668.72,4445.64,4840,1693,1709,2.915,0,0,0,0,
128,4263.08,4303.59,4163.59,3909.74,4340.51,4126.67,4552.31,4536.92,4281.54,3914.36,4256.92,4667.18,4449.23,4829.23,1693,1709,2.923,0,0,0,0,
0,4243.59,4292.82,4145.64,3903.08,4340,4129.74,4553.85,4542.56,4286.15,3912.82,4256.92,4661.03,4440,4816.92,1693,1709,2.931,0,0,0,0,
1,4217.44,4272.31,4134.36,3890.77,4338.46,4127.18,4546.15,4536.92,4278.46,3908.72,4248.21,4648.21,4429.74,4786.15,1691,1710,2.939,0,0,0,0,
2,4194.87,4253.85,4131.28,3893.33,4333.33,4136.41,4551.28,4536.41,4280,3913.33,4240.51,4643.08,4423.08,4757.44,1692,1709,2.947,0,0,0,0,
3,4173.85,4244.62,4121.54,3892.82,4331.79,4142.56,4558.46,4538.46,4283.08,3909.23,4230.77,4635.38,4408.21,4737.44,1691,1710,2.955,0,0,0,0,
4,4153.33,4240,4110.77,3877.44,4344.1,4133.33,4552.82,4536.41,4277.95,3900,4222.56,4622.56,4393.33,4714.36,1691,1709,2.962,0,0,0,0,
5,4142.56,4241.03,4108.21,3874.36,4356.92,4131.79,4549.74,4536.92,4275.38,3902.05,4226.15,4622.56,4395.38,4698.46,1690,1710,2.97,0,0,0,0,
6,4131.79,4236.92,4109.23,3880.51,4352.31,4139.49,4554.36,4536.92,4277.95,3901.54,4226.15,4624.1,4400.51,4691.79,1690,1709,2.978,0,0,0,0,
7,4114.87,4220,4104.1,3869.23,4331.79,4138.46,4553.85,4534.36,4275.9,3892.31,4216.41,4614.36,4390.77,4678.46,1691,1709,2.986,0,0,0,0,
8,4103.08,4207.69,4096.41,3859.49,4319.49,4133.33,4549.23,4534.87,4273.85,3893.85,4213.85,4609.23,4383.59,4662.56,1691,1708,2.994,0,0,0,0,
9,4097.95,4212.31,4100,3873.33,4343.08,4135.38,4551.79,4540,4287.18,3909.74,4228.21,4618.46,4396.41,4664.62,1691,1709,3.002,0,0,0,0,
10,4097.44,4218.97,4106.67,3883.59,4370.77,4138.97,4555.38,4542.56,4294.36,3915.38,4235.9,4621.54,4406.15,4669.23,1691,1708,3.009,0,0,0,0,
11,4091.79,4213.85,4097.95,3876.92,4364.62,4136.92,4552.82,4538.46,4283.59,3906.15,4226.67,4608.72,4398.46,4654.36,1692,1710,3.017,0,0,0,0,
12,4082.05,4206.15,4090.26,3874.36,4351.28,4135.9,4550.77,4536.92,4280.51,3906.67,4226.15,4606.15,4392.82,4642.56,1692,1709,3.025,0,0,0,0,
13,4080.51,4203.59,4095.9,3876.41,4357.95,4140,4555.38,4540,4286.15,3917.44,4234.87,4615.9,4400,4648.72,1691,1711,3.033,0,0,0,0,
14,4082.56,4205.13,4095.9,3870.77,4360,4140,4554.87,4538.46,4280.51,3915.9,4234.87,4616.92,4402.05,4649.74,1692,1709,3.041,0,0,0,0,
15,4075.9,4201.54,4090.77,3863.59,4346.67,4137.44,4551.28,4533.33,4274.36,3908.21,4230.26,4608.72,4392.31,4640,1691,1709,3.048,0,0,0,0,
16,4060.51,4189.23,4091.28,3860.51,4337.44,4137.44,4551.79,4532.82,4276.92,3909.74,4225.13,4603.08,4383.08,4626.67,1692,1711,3.056,0,0,0,0,
17,4049.74,4181.54,4087.69,3862.05,4341.54,4135.38,4551.79,4534.87,4277.44,3910.77,4216.41,4598.97,4381.03,4618.46,1691,1709,3.064,0,0,0,0,
18,4051.28,4184.62,4081.03,3869.74,4352.82,4136.92,4552.82,4537.44,4281.03,3910.26,4215.9,4595.9,4384.62,4625.64,1691,1711,3.072,0,0,0,0,
19,4049.74,4186.67,4074.87,3869.23,4353.85,4141.54,4556.41,4539.49,4283.59,3910.26,4220,4592.82,4381.54,4624.1,1690,1710,3.08,0,0,0,0,
20,4036.92,4182.05,4069.74,3859.49,4352.31,4140.51,4554.87,4538.46,4283.08,3911.28,4216.41,4585.64,4376.41,4609.23,1690,1711,3.088,0,0,0,0,
21,4032.82,4180,4072.82,3858.46,4356.92,4139.49,4552.82,4537.95,4289.74,3911.28,4215.38,4587.18,4381.54,4617.44,1691,1709,3.095,0,0,0,0,
22,4040,4183.59,4077.95,3863.08,4350.77,4141.03,4551.79,4539.49,4295.38,3912.82,4221.03,4596.92,4390.26,4636.41,1690,1710,3.103,0,0,0,0,
23,4040,4181.54,4076.92,3861.54,4338.46,4138.97,4544.1,4533.85,4289.23,3920,4229.23,4598.97,4392.31,4629.23,1690,1709,3.111,0,0,0,0,
24,4033.85,4172.82,4076.41,3859.49,4338.46,4137.95,4542.05,4527.69,4280.51,3923.08,4230.77,4593.33,4390.77,4617.95,1690,1710,3.119,0,0,0,0,
25,4027.69,4166.15,4075.9,3863.08,4347.18,4140.51,4550.77,4532.82,4276.92,3912.31,4222.05,4588.21,4386.15,4625.64,1691,1709,3.127,0,0,0,0,
26,4018.46,4167.69,4070.26,3864.62,4356.41,4138.97,4553.85,4538.97,4277.95,3905.13,4214.36,4585.64,4382.05,4624.62,1690,1710,3.134,0,0,0,0,
27,4018.46,4173.33,4072.82,3860,4365.64,4137.44,4552.82,4543.59,4285.64,3916.41,4217.95,4588.72,4389.23,4618.46,1692,1710,3.142,0,0,0,0,
28,4025.13,4172.82,4076.41,3854.36,4360.51,4138.46,4555.9,4550.77,4294.87,3927.69,4224.62,4589.23,4396.41,4622.05,1692,1709,3.15,0,0,0,0,
29,4025.13,4167.18,4070.77,3858.97,4347.69,4140.51,4556.41,4556.41,4300,3927.69,4230.26,4587.69,4396.41,4632.31,1691,1711,3.158,0,0,0,0,
30,4027.18,4173.85,4070.77,3866.67,4353.85,4140,4552.82,4552.31,4301.03,3926.67,4232.31,4591.79,4400,4642.05,1692,1710,3.166,0,0,0,0,
31,4035.38,4182.05,4076.41,3864.62,4364.62,4137.95,4551.79,4544.1,4301.03,3929.74,4232.31,4601.54,4404.62,4646.67,1691,1710,3.174,0,0,0,0,
32,4038.46,4174.36,4080.51,3862.05,4361.54,4144.1,4552.31,4537.44,4296.92,3927.69,4232.31,4602.05,4399.49,4646.67,1691,1710,3.181,0,0,0,0,
33,4031.79,4167.69,4079.49,3866.67,4352.82,4151.79,4552.31,4529.74,4287.18,3915.9,4225.13,4589.74,4388.72,4638.97,1691,1710,3.189,0,0,0,0,
34,4020,4173.33,4069.74,3863.59,4350.26,4142.56,4549.23,4524.62,4277.44,3907.18,4213.85,4581.54,4380,4624.1,1691,1709,3.197,0,0,0,0,
35,4007.18,4167.18,4059.49,3849.74,4353.33,4132.82,4549.23,4521.03,4275.9,3906.67,4205.64,4580.51,4371.28,4615.9,1690,1710,3.205,0,0,0,0,
36,4000.51,4152.31,4058.46,3841.54,4358.46,4141.03,4552.82,4521.54,4277.44,3905.64,4202.56,4574.87,4367.69,4615.9,1691,1709,3.213,0,0,0,0,
37,4004.1,4155.9,4060,3851.28,4359.49,4147.69,4554.36,4530.77,4277.44,3907.18,4208.72,4570.26,4373.85,4614.36,1690,1709,3.22,0,0,0,0,
38,4012.82,4168.21,4060,3863.59,4356.41,4141.54,4554.87,4541.03,4281.54,3911.79,4217.95,4577.44,4381.03,4620.51,1691,1710,3.228,0,0,0,0,
39,4018.97,4172.31,4065.64,3855.38,4356.92,4136.41,4555.38,4540,4287.18,3911.28,4217.95,4584.1,4384.1,4632.82,1691,1708,3.236,0,0,0,0,
40,4019.49,4173.85,4070.77,3847.69,4355.9,4140.51,4552.31,4538.97,4292.82,3914.36,4216.92,4588.21,4388.21,4634.36,1691,1710,3.244,0,0,0,0,
41,4030.26,4184.62,4076.92,3868.21,4360,4154.36,4555.9,4553.33,4305.13,3928.72,4229.74,4599.49,4400,4642.56,1692,1709,3.252,0,0,0,0,
42,4038.97,4189.23,4080,3881.54,4359.49,4156.41,4558.46,4557.95,4308.21,3931.79,4235.9,4600,4404.1,4654.87,1691,1710,3.26,0,0,0,0,
43,4028.21,4172.31,4072.31,3861.03,4342.56,4140.51,4545.13,4536.41,4288.21,3913.85,4216.41,4585.64,4385.64,4639.49,1692,1710,3.267,0,0,0,0,
44,4022.05,4165.64,4069.23,3853.33,4342.56,4131.79,4532.31,4522.05,4273.85,3902.56,4203.59,4583.08,4372.31,4623.59,1691,1710,3.275,0,0,0,0,
45,4031.28,4179.49,4076.41,3867.18,4367.18,4136.92,4536.41,4526.67,4277.95,3913.33,4215.9,4588.72,4382.56,4639.49,1692,1711,3.283,0,0,0,0,
46,4028.72,4178.46,4077.95,3865.13,4374.87,4144.1,4546.15,4527.18,4278.46,3913.33,4217.95,4585.13,4385.64,4642.05,1691,1710,3.291,0,0,0,0,
47,4017.95,4167.69,4070.77,3860,4366.15,4148.72,4552.31,4526.15,4275.9,3896.41,4201.54,4581.03,4370.77,4620.51,1692,1710,3.299,0,0,0,0,
48,4018.97,4172.82,4065.64,3865.64,4364.62,4153.85,4556.41,4534.87,4278.97,3897.95,4200.51,4578.97,4367.69,4616.41,1690,1709,3.306,0,0,0,0,
49,4015.9,4168.72,4063.59,3856.41,4352.82,4147.69,4557.44,4539.49,4282.05,3912.31,4207.18,4572.82,4370.26,4620,1691,1710,3.314,0,0,0,0,
50,4002.56,4149.74,4055.9,3843.08,4337.44,4141.03,4555.9,4532.82,4286.67,3909.74,4196.41,4566.15,4361.54,4608.72,1691,1707,3.322,0,0,0,0,
51,4005.13,4154.87,4052.31,3844.1,4346.67,4147.18,4556.41,4534.87,4294.87,3911.79,4199.49,4568.21,4368.21,4614.36,1689,1709,3.33,0,0,0,0,
52,4018.46,4167.69,4058.97,3844.62,4356.92,4146.67,4555.9,4541.54,4298.46,3925.13,4218.46,4578.46,4385.64,4630.26,1691,1709,3.338,0,0,0,0,
53,4026.15,4169.23,4070.77,3849.23,4350.77,4136.41,4554.87,4539.49,4292.82,3927.18,4220,4588.72,4389.74,4632.31,1690,1710,3.346,0,0,0,0,
54,4034.87,4177.95,4083.08,3865.64,4350.77,4133.33,4552.82,4536.41,4289.23,3923.08,4214.87,4598.46,4390.26,4639.49,1691,1710,3.353,0,0,0,0,
55,4043.59,4186.15,4088.21,3867.69,4348.72,4136.92,4555.38,4542.56,4293.33,3920.51,4220.51,4604.62,4390.26,4649.74,1691,1710,3.361,0,0,0,0,
56,4037.95,4177.44,4082.05,3856.92,4332.31,4137.44,4557.95,4549.74,4292.82,3912.31,4218.97,4601.03,4380,4647.18,1692,1710,3.369,0,0,0,0,
57,4041.03,4178.46,4082.56,3865.64,4336.41,4141.03,4555.9,4547.18,4285.13,3909.23,4212.82,4597.95,4379.49,4654.87,1691,1708,3.377,0,0,0,0,
58,4073.33,4205.13,4096.92,3882.05,4360.51,4142.05,4553.33,4542.05,4280,3912.31,4213.85,4607.18,4392.31,4681.54,1693,1708,3.385,0,0,0,0,
59,4112.82,4226.15,4106.67,3884.1,4358.97,4128.21,4550.77,4538.46,4278.97,3908.72,4218.97,4617.44,4400.51,4710.77,1692,1708,3.392,0,0,0,0,
60,4158.46,4244.62,4118.97,3888.21,4345.64,4127.18,4552.31,4537.44,4275.38,3907.18,4228.21,4628.21,4410.77,4754.36,1693,1710,3.4,0,0,0,0,
61,4224.1,4279.49,4146.67,3906.67,4351.79,4134.36,4554.36,4536.41,4270.26,3910.77,4236.92,4646.67,4426.15,4814.36,1692,1711,3.408,0,0,0,0,
62,4282.56,4311.79,4166.67,3927.18,4357.95,4127.69,4547.69,4525.64,4264.1,3907.18,4237.44,4659.49,4435.9,4865.64,1693,1710,3.416,0,0,0,0,
63,4312.31,4321.03,4171.28,3931.79,4348.72,4118.97,4538.46,4517.44,4260,3905.13,4241.54,4666.15,4446.15,4901.54,1692,1709,3.424,0,0,0,0,
64,4320.51,4326.15,4172.82,3930.26,4344.1,4124.62,4540,4520,4263.59,3910.26,4249.74,4670.77,4454.36,4920.51,1692,1708,3.432,0,0,0,0,
65,4312.31,4329.23,4172.82,3930.77,4344.1,4126.15,4541.03,4524.62,4270.26,3912.82,4249.74,4670.26,4451.28,4917.95,1691,1708,3.439,0,0,0,0,
66,4294.36,4318.46,4169.23,3928.72,4340,4121.03,4537.44,4528.21,4273.85,3907.69,4247.69,4668.72,4447.18,4899.49,1691,1708,3.447,0,0,0,0,
67,4285.13,4311.28,4168.72,3929.74,4346.15,4130.26,4544.1,4534.87,4278.97,3909.74,4249.23,4671.28,4451.79,4881.03,1690,1708,3.455,0,0,0,0,
68,4268.21,4307.69,4164.62,3929.74,4354.87,4140,4555.38,4540.51,4283.59,3913.85,4244.62,4666.15,4448.72,4862.05,1691,1710,3.463,0,0,0,0,
69,4232.31,4290.26,4147.69,3911.79,4341.54,4130.77,4554.36,4536.41,4280,3908.21,4228.21,4646.15,4426.67,4832.31,1691,1709,3.471,0,0,0,0,
70,4209.74,4268.72,4134.87,3891.28,4330.26,4124.62,4550.26,4531.28,4276.41,3902.05,4220,4636.41,4412.31,4798.46,1689,1710,3.479,0,0,0,0,
71,4207.18,4262.05,4140.51,3893.33,4341.03,4137.95,4555.9,4534.36,4285.64,3908.72,4229.74,4642.56,4425.64,4783.08,1691,1709,3.486,0,0,0,0,
72,4192.82,4263.08,4138.97,3909.23,4354.87,4147.18,4559.49,4540.51,4292.82,3916.92,4237.95,4643.59,4428.21,4778.46,1690,1710,3.494,0,0,0,0,
73,4168.21,4258.97,4123.08,3907.18,4356.41,4137.95,4555.38,4538.46,4284.1,3907.69,4229.23,4633.85,4408.21,4760.51,1690,1710,3.502,0,0,0,0,
74,4155.9,4250.26,4117.95,3892.31,4351.79,4132.82,4552.82,4533.85,4276.41,3893.85,4218.97,4626.15,4403.08,4737.44,1690,1709,3.51,0,0,0,0,
75,4142.05,4238.46,4118.46,3887.69,4347.69,4133.85,4552.82,4535.9,4278.97,3895.9,4217.95,4620,4406.67,4718.97,1692,1710,3.518,0,0,0,0,
76,4124.62,4231.79,4106.67,3890.77,4352.31,4136.41,4554.87,4536.92,4281.54,3909.23,4218.46,4614.87,4399.49,4703.59,1691,1710,3.525,0,0,0,0,
77,4114.87,4228.21,4095.9,3880.51,4351.79,4140.51,4555.38,4538.46,4283.59,3914.36,4216.92,4611.79,4396.92,4689.74,1693,1710,3.533,0,0,0,0,
78,4102.05,4214.87,4092.31,3864.62,4340,4141.03,4555.38,4539.49,4283.08,3906.15,4213.85,4602.05,4399.49,4676.92,1691,1708,3.541,0,0,0,0,
79,4091.28,4200.51,4092.31,3870.77,4343.08,4140.51,4560.51,4540,4283.08,3903.59,4215.9,4600.51,4396.92,4670.26,1691,1709,3.549,0,0,0,0,
80,4091.28,4202.05,4093.85,3880.51,4357.95,4142.05,4563.08,4541.54,4287.69,3909.23,4222.56,4612.82,4398.46,4674.36,1691,1708,3.557,0,0,0,0,
81,4083.59,4201.03,4084.62,3868.72,4353.33,4138.46,4555.38,4537.44,4288.21,3909.74,4223.08,4610.26,4398.97,4669.23,1691,1710,3.565,0,0,0,0,
82,4072.82,4191.28,4078.46,3856.92,4343.08,4136.92,4551.79,4536.92,4288.21,3907.18,4217.95,4597.44,4393.85,4651.79,1692,1709,3.572,0,0,0,0,
83,4075.9,4196.41,4086.15,3870.77,4354.87,4142.56,4556.92,4542.05,4294.87,3911.79,4218.46,4599.49,4398.97,4652.31,1690,1710,3.58,0,0,0,0,
84,4072.31,4203.08,4086.67,3880.51,4366.67,4141.03,4555.9,4541.03,4299.49,3916.41,4221.54,4606.15,4403.59,4658.97,1691,1710,3.588,0,0,0,0,
85,4054.36,4190.26,4075.38,3858.97,4355.9,4142.56,4554.36,4542.56,4297.95,3913.85,4220,4603.59,4394.87,4647.69,1691,1710,3.596,0,0,0,0,
86,4042.05,4173.85,4068.72,3847.69,4345.64,4151.79,4556.92,4545.64,4295.9,3912.82,4215.9,4594.87,4386.15,4629.74,1691,1709,3.604,0,0,0,0,
87,4036.92,4168.72,4067.18,3857.95,4351.28,4153.33,4560.51,4543.08,4293.85,3910.26,4212.31,4584.62,4386.67,4620.51,1691,1708,3.611,0,0,0,0,
88,4032.31,4172.31,4065.13,3865.64,4350.77,4153.33,4567.18,4547.18,4296.92,3910.26,4213.85,4585.13,4389.74,4618.46,1691,1709,3.619,0,0,0,0,
89,4028.72,4170.77,4061.03,3862.05,4340,4151.28,4565.64,4550.77,4293.85,3909.74,4215.38,4586.15,4380,4609.23,1690,1709,3.627,0,0,0,0,
90,4024.62,4157.95,4060.51,3851.28,4342.05,4137.95,4553.33,4534.87,4278.97,3899.49,4206.67,4576.41,4369.74,4598.46,1690,1710,3.635,0,0,0,0,
91,4022.56,4148.72,4065.64,3841.54,4346.15,4130.77,4548.21,4525.64,4272.82,3892.82,4198.46,4573.85,4374.36,4601.03,1691,1708,3.643,0,0,0,0,
92,4027.18,4155.9,4067.18,3850.77,4340,4139.49,4554.87,4536.41,4283.08,3902.05,4204.62,4584.1,4382.05,4612.82,1690,1710,3.651,0,0,0,0,
93,4034.36,4167.69,4068.72,3864.1,4344.62,4142.05,4556.92,4541.03,4290.77,3911.79,4216.41,4591.79,4385.64,4617.95,1692,1709,3.659,0,0,0,0,
94,4035.9,4170.26,4075.9,3862.56,4362.05,4138.97,4554.87,4538.46,4294.36,3912.31,4219.49,4594.87,4388.72,4616.92,1691,1709,3.666,0,0,0,0,
95,4031.28,4163.08,4072.82,3860.51,4360.51,4141.54,4556.41,4540.51,4294.36,3911.28,4216.41,4593.85,4387.18,4610.77,1692,1710,3.674,0,0,0,0,
96,4028.21,4157.95,4065.64,3855.38,4343.59,4142.05,4558.46,4541.54,4289.74,3909.74,4215.9,4589.23,4381.54,4607.69,1692,1709,3.682,0,0,0,0,
97,4028.21,4155.38,4069.74,3845.13,4336.92,4137.95,4553.85,4538.46,4284.1,3906.67,4214.36,4586.67,4382.05,4611.28,1692,1710,3.69,0,0,0,0,
98,4028.72,4151.28,4076.92,3851.28,4341.03,4135.9,4552.82,4540.51,4283.59,3907.69,4213.33,4592.31,4385.64,4609.74,1691,1709,3.697,0,0,0,0,
99,4031.28,4159.49,4074.87,3865.13,4347.18,4135.9,4561.54,4552.31,4289.23,3911.79,4217.95,4601.03,4389.74,4607.69,1690,1710,3.705,0,0,0,0,
100,4031.79,4168.72,4067.18,3858.46,4343.59,4136.92,4561.54,4553.33,4290.77,3912.31,4220.51,4597.95,4391.79,4606.67,1690,1709,3.713,0,0,0,0,
101,4028.72,4158.46,4064.62,3844.1,4337.95,4138.46,4557.44,4548.21,4290.26,3911.28,4217.44,4589.23,4387.69,4604.62,1689,1709,3.721,0,0,0,0,
102,4026.15,4154.36,4065.13,3849.74,4353.33,4135.9,4558.97,4547.18,4292.82,3910.77,4214.36,4593.33,4381.54,4604.62,1690,1708,3.729,0,0,0,0,
103,4024.62,4170.26,4065.64,3866.15,4365.64,4141.54,4560,4548.72,4294.36,3912.31,4217.44,4596.92,4381.54,4605.13,1689,1709,3.737,0,0,0,0,
104,4023.59,4170.77,4065.64,3863.59,4348.21,4152.31,4561.03,4551.28,4295.9,3912.82,4218.97,4587.69,4387.18,4605.64,1691,1709,3.744,0,0,0,0,
105,4017.44,4152.82,4058.97,3842.05,4335.9,4145.64,4559.49,4547.69,4294.87,3909.74,4207.69,4579.49,4385.13,4599.49,1689,1709,3.752,0,0,0,0,
106,4007.69,4144.1,4052.82,3837.95,4341.03,4133.85,4554.87,4535.38,4291.28,3905.64,4198.46,4577.44,4374.87,4587.18,1691,1711,3.76,0,0,0,0,
107,4007.69,4140.51,4055.9,3848.72,4334.87,4137.95,4552.31,4532.31,4291.28,3905.13,4205.13,4579.49,4376.41,4588.72,1691,1709,3.768,0,0,0,0,
108,4021.54,4145.64,4064.62,3848.72,4340.51,4141.03,4555.9,4546.67,4300,3912.82,4223.59,4589.23,4393.85,4608.72,1691,1711,3.776,0,0,0,0,
109,4029.74,4161.03,4071.79,3854.87,4366.15,4139.49,4563.08,4557.44,4312.82,3924.1,4231.79,4601.03,4407.69,4617.44,1692,1710,3.783,0,0,0,0,
110,4027.18,4163.08,4072.82,3864.1,4369.74,4149.23,4569.23,4558.46,4321.03,3928.21,4223.59,4603.08,4403.08,4610.77,1691,1711,3.791,0,0,0,0,
111,4019.49,4152.31,4063.59,3860,4349.74,4152.31,4567.18,4556.41,4311.28,3919.49,4215.9,4592.82,4387.69,4604.62,1692,1710,3.799,0,0,0,0,
112,4007.69,4140,4056.41,3844.1,4342.05,4140,4560,4550.77,4292.31,3910.26,4213.33,4582.05,4379.49,4597.95,1692,1710,3.807,0,0,0,0,
113,4005.13,4133.85,4061.03,3832.31,4344.1,4138.97,4562.56,4549.23,4292.82,3910.77,4210.26,4584.62,4383.59,4593.85,1692,1709,3.815,0,0,0,0,
114,4013.33,4145.13,4061.54,3837.44,4349.23,4151.79,4569.23,4553.85,4306.15,3913.85,4211.79,4588.21,4385.13,4595.38,1691,1710,3.823,0,0,0,0,
115,4016.92,4150.26,4060.51,3848.72,4356.92,4155.9,4566.67,4554.36,4307.18,3913.85,4217.95,4586.15,4384.1,4601.03,1691,1708,3.83,0,0,0,0,
116,4011.79,4140.51,4060,3848.72,4354.36,4142.56,4555.9,4542.56,4297.44,3910.77,4208.72,4582.56,4380,4598.97,1691,1709,3.838,0,0,0,0,
117,4010.77,4145.64,4057.44,3844.62,4341.54,4134.87,4551.28,4533.33,4291.79,3907.18,4197.95,4581.03,4375.38,4587.18,1691,1709,3.846,0,0,0,0,
118,4017.95,4151.79,4058.46,3849.23,4334.36,4142.56,4556.41,4535.9,4289.23,3907.18,4206.67,4584.1,4376.92,4588.21,1690,1710,3.854,0,0,0,0,
119,4021.54,4142.56,4062.05,3849.74,4343.08,4145.64,4558.46,4539.49,4288.72,3910.26,4214.36,4587.69,4386.15,4597.95,1691,1709,3.862,0,0,0,0,
120,4019.49,4146.15,4062.05,3849.23,4354.87,4137.44,4554.36,4540,4292.82,3912.82,4213.85,4587.18,4391.28,4600.51,1690,1710,3.87,0,0,0,0,
121,4014.36,4154.87,4057.95,3850.77,4346.15,4129.74,4552.82,4538.97,4294.36,3912.31,4215.38,4585.64,4383.59,4598.46,1691,1709,3.877,0,0,0,0,
122,4018.46,4149.74,4061.54,3847.69,4338.46,4131.79,4554.36,4542.56,4291.28,3911.79,4217.44,4589.23,4383.08,4602.56,1690,1710,3.885,0,0,0,0,
123,4029.74,4152.82,4069.23,3856.92,4353.33,4137.95,4557.44,4550.26,4294.87,3913.33,4216.92,4593.33,4396.92,4607.18,1691,1710,3.893,0,0,0,0,
124,4030.26,4157.44,4071.28,3864.62,4355.9,4138.46,4556.92,4550.77,4300.51,3914.36,4219.49,4591.79,4400.51,4611.79,1690,1710,3.901,0,0,0,0,
125,4019.49,4149.23,4067.18,3853.85,4337.44,4134.87,4554.87,4540.51,4296.41,3913.33,4220.51,4587.69,4386.67,4605.13,1691,1710,3.909,0,0,0,0,
126,4015.38,4149.74,4061.03,3846.15,4341.03,4135.38,4553.85,4538.97,4292.31,3911.28,4213.85,4586.15,4380,4589.74,1690,1709,3.916,0,0,0,0,
127,4020,4152.31,4062.05,3851.28,4355.9,4137.44,4554.87,4547.18,4294.87,3910.26,4206.67,4587.18,4382.05,4588.21,1691,1711,3.924,0,0,0,0,
128,4017.95,4141.54,4064.62,3854.36,4353.33,4136.41,4556.41,4546.67,4297.95,3909.74,4207.18,4585.13,4378.46,4593.33,1691,1709,3.932,0,0,0,0,
0,4014.36,4137.44,4064.1,3858.46,4348.21,4138.97,4556.41,4544.1,4296.92,3912.82,4212.82,4583.08,4378.97,4592.31,1691,1710,3.94,0,0,0,0,
1,4017.44,4142.56,4066.67,3862.56,4349.23,4141.54,4556.41,4548.72,4295.9,3914.36,4215.38,4587.18,4382.05,4594.87,1692,1709,3.948,0,0,0,0,
2,4021.03,4137.95,4070.26,3854.87,4351.28,4139.49,4558.97,4553.85,4296.41,3913.85,4214.36,4593.33,4381.03,4600,1692,1709,3.956,0,0,0,0,
3,4018.97,4138.46,4066.67,3849.23,4354.36,4137.95,4557.95,4551.79,4296.41,3917.44,4215.9,4590.26,4383.08,4601.03,1692,1708,3.963,0,0,0,0,
4,4016.41,4147.18,4063.08,3850.77,4345.13,4137.95,4552.82,4544.62,4296.92,3919.49,4218.46,4584.1,4386.67,4598.97,1691,1709,3.971,0,0,0,0,
5,4017.44,4146.67,4062.56,3854.36,4333.85,4139.49,4551.79,4540,4296.41,3912.82,4216.41,4585.13,4384.62,4595.9,1693,1709,3.979,0,0,0,0,
6,4017.44,4146.15,4058.46,3861.03,4351.28,4137.44,4553.33,4535.9,4293.33,3908.21,4212.82,4585.13,4377.95,4589.23,1691,1709,3.987,0,0,0,0,
7,4018.97,4156.92,4062.56,3868.21,4372.31,4139.49,4554.87,4542.56,4295.9,3919.49,4215.38,4585.64,4385.64,4594.87,1691,1709,3.995,0,0,0,0,
8,4024.1,4154.87,4070.77,3862.56,4362.56,4147.18,4557.95,4551.28,4304.62,3928.72,4216.92,4588.21,4395.9,4604.1,1691,1708,4.002,0,0,0,0,
9,4020.51,4137.95,4062.05,3847.18,4343.08,4141.03,4556.41,4544.1,4301.54,3916.41,4210.26,4582.56,4386.67,4602.05,1690,1710,4.01,0,0,0,0,
10,4016.41,4140,4056.41,3851.28,4350.77,4134.36,4553.85,4536.41,4293.85,3912.82,4215.9,4582.05,4380.51,4599.49,1692,1708,4.018,0,0,0,0,
11,4022.56,4155.9,4068.72,3865.13,4365.64,4143.59,4555.9,4544.62,4297.95,3928.21,4227.69,4593.85,4394.36,4603.08,1691,1709,4.026,0,0,0,0,
12,4023.08,4156.92,4075.9,3862.56,4359.49,4148.72,4556.92,4550.77,4306.67,3930.77,4221.03,4594.87,4402.56,4601.54,1691,1708,4.034,0,0,0,0,
13,4017.44,4147.69,4066.15,3857.95,4352.82,4149.23,4556.41,4550.77,4311.28,3925.64,4220.51,4589.23,4397.44,4604.1,1691,1709,4.042,0,0,0,0,
14,4023.08,4151.28,4065.13,3864.62,4365.13,4151.79,4556.41,4552.82,4311.79,3927.69,4232.31,4598.46,4396.92,4614.36,1692,1709,4.049,0,0,0,0,
15,4026.67,4158.46,4069.23,3865.13,4365.64,4146.15,4554.87,4545.64,4303.08,3919.49,4226.15,4601.03,4394.87,4613.85,1691,1710,4.057,0,0,0,0,
16,4015.9,4146.15,4061.03,3856.92,4344.62,4136.41,4553.33,4535.38,4290.77,3907.69,4211.28,4585.64,4385.64,4602.56,1692,1710,4.065,0,0,0,0,
17,4014.87,4135.9,4057.95,3858.97,4348.21,4134.87,4553.85,4537.95,4288.21,3910.77,4212.82,4579.49,4383.59,4597.95,1691,1710,4.073,0,0,0,0,
18,4025.13,4147.18,4067.18,3866.15,4368.72,4142.56,4554.87,4540.51,4293.33,3918.46,4218.46,4585.64,4388.21,4600,1691,1710,4.081,0,0,0,0,
19,4032.31,4159.49,4069.23,3866.15,4365.64,4148.21,4555.9,4540.51,4297.95,3925.13,4218.46,4590.26,4395.9,4605.64,1691,1709,4.088,0,0,0,0,
20,4032.82,4154.36,4065.13,3862.05,4346.67,4137.44,4554.36,4541.03,4296.92,3926.67,4221.54,4592.82,4397.95,4609.74,1690,1710,4.096,0,0,0,0,
21,4029.74,4148.72,4069.23,3863.59,4344.1,4128.21,4552.82,4541.54,4297.95,3924.62,4224.62,4597.44,4395.9,4611.79,1692,1709,4.104,0,0,0,0,
22,4029.74,4153.85,4075.9,3866.67,4355.38,4137.44,4554.87,4542.05,4301.54,3927.69,4223.59,4600,4396.92,4611.28,1690,1710,4.112,0,0,0,0,
23,4028.21,4152.82,4074.36,3861.54,4358.46,4139.49,4553.85,4541.03,4296.92,3924.1,4217.44,4597.44,4397.95,4605.13,1691,1711,4.12,0,0,0,0,
24,4028.21,4149.74,4072.31,3860,4355.38,4133.85,4551.79,4539.49,4290.77,3918.97,4218.46,4597.95,4396.92,4608.21,1690,1710,4.128,0,0,0,0,
25,4033.85,4150.77,4076.92,3865.13,4355.9,4136.92,4554.87,4541.54,4295.9,3924.1,4226.67,4606.15,4397.44,4620,1691,1711,4.135,0,0,0,0,
26,4033.85,4150.77,4076.92,3864.1,4349.74,4136.92,4555.9,4540,4297.95,3920,4223.59,4604.1,4393.85,4614.87,1690,1710,4.143,0,0,0,0,
27,4023.59,4149.74,4072.82,3860.51,4342.05,4134.36,4553.85,4535.38,4286.67,3908.72,4209.23,4590.77,4385.64,4600.51,1691,1710,4.151,0,0,0,0,
28,4021.03,4152.82,4074.87,3860.51,4350.77,4135.38,4554.87,4536.41,4281.03,3908.72,4206.15,4587.69,4381.54,4603.08,1691,1710,4.159,0,0,0,0,
29,4023.59,4153.33,4071.28,3863.59,4356.92,4137.44,4554.87,4535.38,4282.05,3910.26,4212.31,4588.21,4380.51,4606.15,1691,1710,4.167,0,0,0,0,
30,4016.92,4149.74,4062.05,3859.49,4349.23,4138.97,4553.33,4530.77,4281.03,3905.64,4208.72,4584.62,4378.46,4596.41,1692,1709,4.174,0,0,0,0,
31,4020,4150.26,4064.62,3850.26,4349.23,4135.38,4553.85,4534.36,4284.1,3910.26,4209.23,4585.13,4380,4596.41,1690,1710,4.182,0,0,0,0,
32,4030.77,4152.31,4071.28,3851.28,4356.92,4134.87,4554.87,4535.9,4286.67,3914.87,4215.38,4587.69,4384.1,4606.67,1692,1709,4.19,0,0,0,0,
33,4030.26,4149.74,4068.72,3861.54,4353.85,4141.03,4554.87,4531.28,4279.49,3910.77,4210.26,4586.15,4383.08,4606.67,1690,1710,4.198,0,0,0,0,
34,4026.67,4149.23,4062.56,3863.08,4348.21,4139.49,4553.33,4530.26,4279.49,3909.23,4204.1,4583.08,4380.51,4598.97,1691,1711,4.206,0,0,0,0,
35,4028.72,4153.85,4063.08,3860,4356.41,4133.85,4551.79,4536.41,4288.72,3911.79,4209.23,4583.08,4382.05,4602.05,1690,1709,4.214,0,0,0,0,
36,4030.26,4157.44,4071.79,3865.64,4362.56,4136.92,4552.82,4538.46,4288.21,3912.31,4209.23,4585.64,4384.62,4610.77,1690,1711,4.221,0,0,0,0,
37,4028.21,4153.33,4073.85,3868.21,4354.87,4140.51,4552.82,4529.23,4278.97,3909.74,4200.51,4585.64,4383.08,4607.69,1690,1710,4.229,0,0,0,0,
38,4027.69,4153.85,4065.64,3861.54,4351.28,4136.41,4549.74,4519.49,4275.38,3908.21,4204.62,4584.1,4380,4598.97,1690,1711,4.237,0,0,0,0,
39,4030.26,4165.64,4068.21,3861.03,4358.46,4136.92,4551.28,4528.72,4284.62,3910.77,4218.46,4590.26,4382.56,4603.08,1690,1709,4.245,0,0,0,0,
40,4032.82,4161.03,4075.9,3863.59,4352.31,4139.49,4555.38,4537.44,4290.77,3912.31,4216.41,4591.28,4385.64,4608.72,1691,1710,4.253,0,0,0,0,
41,4030.77,4150.26,4069.74,3861.54,4346.67,4137.95,4553.85,4528.21,4283.59,3909.23,4205.13,4582.56,4385.13,4610.26,1691,1709,4.261,0,0,0,0,
42,4030.77,4163.08,4069.74,3861.54,4364.1,4139.49,4554.87,4531.79,4286.15,3911.79,4211.79,4589.74,4387.69,4616.41,1692,1709,4.268,0,0,0,0,
43,4031.79,4170.77,4075.9,3862.05,4369.74,4141.03,4558.46,4544.62,4297.95,3916.41,4222.56,4600,4387.69,4614.36,1691,1708,4.276,0,0,0,0,
44,4026.67,4153.33,4070.26,3859.49,4352.31,4141.03,4555.38,4539.49,4297.44,3913.85,4213.33,4591.79,4380,4603.59,1691,1709,4.284,0,0,0,0,
45,4031.79,4153.33,4072.31,3867.69,4351.79,4151.28,4558.46,4540,4296.92,3918.46,4212.82,4592.82,4385.13,4613.85,1690,1709,4.292,0,0,0,0,
46,4047.69,4171.79,4089.74,3877.95,4370.77,4154.87,4564.62,4549.74,4307.69,3930.77,4234.87,4611.79,4404.1,4634.36,1691,1710,4.3,0,0,0,0,
47,4047.69,4170.77,4090.26,3868.21,4370.77,4139.49,4558.97,4542.05,4300,3930.77,4239.49,4612.82,4405.13,4629.23,1691,1710,4.307,0,0,0,0,
48,4034.36,4162.56,4076.41,3855.9,4351.79,4131.28,4551.79,4530.26,4281.03,3921.03,4217.44,4598.97,4390.77,4614.36,1691,1710,4.315,0,0,0,0,
49,4038.46,4169.74,4082.05,3863.59,4355.38,4139.49,4555.9,4535.38,4285.64,3922.05,4217.44,4602.56,4392.82,4622.05,1691,1709,4.323,0,0,0,0,
50,4049.23,4177.95,4091.28,3870.26,4373.85,4142.56,4557.44,4539.49,4296.92,3929.74,4235.9,4611.28,4402.05,4635.9,1691,1711,4.331,0,0,0,0,
51,4043.08,4171.28,4079.49,3862.05,4365.64,4138.97,4551.79,4534.36,4290.77,3926.67,4226.15,4601.54,4392.82,4626.67,1692,1709,4.339,0,0,0,0,
52,4030.77,4165.64,4066.15,3857.44,4350.77,4134.87,4550.77,4532.82,4288.21,3921.03,4208.72,4591.79,4383.08,4611.28,1691,1709,4.347,0,0,0,0,
53,4033.33,4170.77,4073.85,3865.64,4359.49,4137.44,4554.87,4539.49,4301.03,3929.74,4224.1,4599.49,4393.33,4617.95,1693,1709,4.354,0,0,0,0,
54,4036.92,4162.56,4079.49,3866.67,4352.31,4141.54,4555.9,4544.1,4302.56,3929.74,4231.79,4598.46,4397.95,4624.1,1691,1708,4.362,0,0,0,0,
55,4027.18,4148.21,4067.18,3857.44,4335.38,4135.9,4551.79,4535.9,4289.74,3914.36,4211.28,4583.08,4387.18,4613.85,1692,1710,4.37,0,0,0,0,
56,4030.77,4158.97,4065.64,3865.64,4354.36,4132.82,4552.31,4535.38,4290.77,3916.41,4215.38,4589.23,4390.26,4617.44,1692,1710,4.378,0,0,0,0,
57,4046.15,4172.82,4081.03,3874.87,4374.36,4141.54,4560.51,4549.74,4299.49,3931.79,4233.85,4605.64,4403.59,4631.79,1691,1709,4.386,0,0,0,0,
58,4044.62,4168.21,4085.64,3872.82,4367.69,4145.13,4564.1,4552.82,4298.97,3930.77,4231.79,4605.13,4403.08,4628.72,1691,1709,4.393,0,0,0,0,
59,4034.36,4163.59,4077.44,3874.36,4362.05,4139.49,4563.59,4544.62,4296.41,3926.15,4226.15,4601.03,4395.9,4622.56,1691,1710,4.401,0,0,0,0,
60,4033.33,4160.51,4073.33,3865.13,4356.41,4138.46,4563.59,4544.1,4295.9,3927.69,4224.1,4601.54,4396.92,4623.59,1691,1708,4.409,0,0,0,0,
61,4033.85,4153.85,4076.41,3853.33,4350.77,4141.03,4561.03,4545.13,4297.95,3928.72,4220,4602.05,4398.97,4622.56,1690,1710,4.417,0,0,0,0,
62,4025.64,4149.23,4072.82,3860.51,4352.31,4139.49,4555.9,4538.97,4295.9,3928.21,4218.46,4598.97,4392.31,4616.92,1691,1710,4.425,0,0,0,0,
63,4016.41,4139.49,4061.54,3857.95,4343.08,4135.9,4553.85,4535.9,4286.67,3916.92,4210.26,4588.72,4374.36,4607.69,1690,1710,4.433,0,0,0,0,
64,4016.92,4136.41,4055.9,3843.08,4338.97,4135.9,4555.38,4536.41,4283.08,3908.21,4201.54,4582.56,4366.15,4600,1691,1710,4.44,0,0,0,0,
65,4025.13,4148.21,4064.62,3853.33,4362.05,4142.56,4556.92,4538.97,4294.87,3919.49,4208.72,4589.23,4380,4601.03,1690,1709,4.448,0,0,0,0,
66,4024.62,4153.33,4069.74,3866.67,4374.36,4146.67,4556.92,4542.56,4300.51,3923.59,4211.28,4591.28,4384.1,4604.62,1691,1710,4.456,0,0,0,0,
67,4015.9,4149.23,4061.03,3860,4349.74,4138.46,4554.36,4537.95,4285.13,3909.74,4199.49,4583.08,4370.26,4602.05,1691,1708,4.464,0,0,0,0,
68,4017.95,4149.74,4060,3859.49,4337.95,4136.92,4554.36,4534.36,4280,3907.69,4202.56,4582.05,4369.74,4601.03,1691,1709,4.472,0,0,0,0,
69,4025.64,4154.36,4067.18,3870.26,4355.38,4145.13,4557.44,4537.44,4293.33,3920.51,4216.41,4588.72,4382.05,4600,1692,1708,4.479,0,0,0,0,
70,4028.72,4157.95,4068.21,3878.46,4359.49,4141.54,4556.41,4538.97,4297.44,3918.97,4215.38,4588.72,4382.56,4600,1692,1710,4.487,0,0,0,0,
71,4036.41,4157.44,4069.74,3878.46,4355.38,4140.51,4554.87,4538.46,4292.82,3911.28,4209.74,4588.72,4381.03,4612.31,1692,1709,4.495,0,0,0,0,
72,4036.92,4154.87,4076.41,3870.26,4361.03,4149.23,4556.92,4540,4295.38,3911.28,4212.31,4592.82,4387.18,4619.49,1691,1710,4.503,0,0,0,0,
73,4025.13,4151.79,4074.36,3862.56,4358.97,4144.1,4557.44,4540,4298.46,3913.33,4215.38,4596.41,4386.15,4612.82,1692,1710,4.511,0,0,0,0,
74,4026.15,4150.77,4068.21,3862.05,4349.74,4135.38,4555.38,4537.44,4293.33,3911.28,4212.82,4595.38,4378.46,4607.69,1691,1710,4.519,0,0,0,0,
75,4034.36,4149.74,4068.21,3865.13,4351.28,4140.51,4562.56,4538.97,4290.77,3908.72,4211.28,4591.79,4377.95,4608.72,1691,1710,4.526,0,0,0,0,
76,4029.23,4144.62,4067.69,3864.62,4352.82,4143.59,4570.26,4540.51,4292.31,3909.74,4212.31,4591.79,4380,4607.69,1691,1709,4.534,0,0,0,0,
77,4024.1,4140,4065.64,3860,4350.77,4138.97,4568.72,4540,4294.87,3909.23,4214.87,4595.9,4382.05,4610.77,1690,1710,4.542,0,0,0,0,
78,4038.97,4143.59,4071.79,3861.54,4352.82,4139.49,4569.23,4540.51,4298.46,3912.31,4217.95,4603.59,4390.26,4625.64,1691,1709,4.55,0,0,0,0,
79,4061.54,4153.85,4082.56,3868.72,4349.23,4142.56,4568.21,4542.56,4299.49,3914.87,4223.59,4610.26,4401.54,4649.23,1690,1709,4.558,0,0,0,0,
80,4088.21,4169.74,4092.31,3882.56,4353.85,4137.95,4560,4538.46,4291.79,3912.82,4230.26,4621.03,4408.21,4681.54,1691,1709,4.565,0,0,0,0,
81,4130.77,4192.82,4105.13,3902.56,4357.44,4125.64,4552.31,4526.67,4283.08,3912.31,4235.9,4636.41,4417.44,4720,1690,1709,4.573,0,0,0,0,
82,4181.03,4212.31,4124.1,3911.79,4342.56,4118.46,4546.67,4521.03,4277.95,3907.18,4235.38,4646.67,4426.15,4756.41,1691,1709,4.581,0,0,0,0,
83,4226.67,4233.85,4142.56,3916.92,4338.97,4121.54,4537.44,4515.38,4267.18,3894.87,4229.74,4652.82,4425.13,4789.23,1691,1709,4.589,0,0,0,0,
84,4265.64,4267.18,4156.92,3939.49,4351.28,4121.54,4539.49,4508.72,4260.51,3892.31,4235.9,4663.08,4430.77,4826.67,1692,1709,4.597,0,0,0,0,
85,4287.18,4286.67,4163.59,3947.18,4348.21,4121.03,4546.67,4512.31,4263.08,3896.92,4251.28,4675.9,4441.54,4852.31,1691,1709,4.605,0,0,0,0,
86,4280,4276.41,4158.46,3929.74,4333.85,4124.1,4542.56,4513.33,4261.54,3892.82,4244.1,4672.31,4438.46,4844.1,1691,1708,4.612,0,0,0,0,
87,4265.64,4264.62,4154.87,3931.79,4346.67,4125.64,4544.62,4512.82,4262.56,3896.41,4230.77,4663.08,4436.92,4837.44,1692,1707,4.62,0,0,0,0,
88,4260,4266.67,4156.92,3945.13,4365.64,4130.77,4555.9,4527.18,4281.54,3912.82,4243.08,4663.59,4447.18,4843.08,1692,1709,4.628,0,0,0,0,
89,4245.64,4258.97,4149.23,3931.79,4354.36,4139.49,4558.46,4542.05,4294.87,3915.38,4254.36,4662.56,4445.64,4824.62,1693,1708,4.636,0,0,0,0,
90,4215.9,4232.82,4134.36,3915.38,4337.95,4136.41,4554.36,4538.46,4288.21,3910.26,4246.15,4652.82,4431.28,4789.74,1692,1709,4.644,0,0,0,0,
91,4186.67,4213.33,4122.05,3906.15,4341.03,4126.67,4553.33,4530.77,4280.51,3909.23,4232.82,4640,4421.54,4765.64,1692,1709,4.651,0,0,0,0,
92,4168.21,4212.82,4113.85,3895.38,4341.54,4130.77,4551.28,4524.62,4277.44,3900,4220.51,4629.23,4415.38,4740.51,1691,1708,4.659,0,0,0,0,
93,4152.82,4212.31,4105.64,3898.46,4339.49,4140,4550.26,4520,4274.87,3893.85,4220.51,4623.08,4407.18,4717.44,1691,1709,4.667,0,0,0,0,
94,4137.95,4211.28,4104.62,3911.79,4354.87,4138.97,4554.87,4525.13,4275.9,3902.56,4228.72,4625.64,4405.13,4713.33,1691,1709,4.675,0,0,0,0,
95,4137.44,4215.38,4115.38,3916.41,4365.13,4134.87,4556.92,4533.85,4280.51,3912.31,4229.23,4629.74,4408.21,4712.82,1691,1709,4.683,0,0,0,0,
96,4142.56,4209.23,4125.64,3912.31,4353.85,4134.87,4555.38,4541.03,4282.05,3913.33,4229.23,4632.31,4412.82,4703.59,1691,1709,4.691,0,0,0,0,
97,4127.18,4192.82,4116.92,3901.54,4343.59,4129.74,4553.85,4541.03,4280.51,3910.26,4231.79,4632.31,4411.28,4686.15,1691,1709,4.698,0,0,0,0,
98,4107.18,4185.64,4101.03,3894.36,4343.59,4125.13,4551.28,4532.82,4284.1,3912.82,4230.77,4631.28,4406.15,4676.92,1690,1710,4.706,0,0,0,0,
99,4106.15,4190.77,4103.08,3897.95,4358.46,4131.79,4553.85,4538.97,4294.36,3925.64,4232.82,4633.33,4411.79,4681.54,1691,1709,4.714,0,0,0,0,
100,4098.97,4185.13,4104.1,3899.49,4367.18,4138.97,4562.56,4551.28,4300.51,3933.85,4234.87,4630.26,4419.49,4673.33,1690,1710,4.722,0,0,0,0,
101,4080.51,4171.79,4090.26,3889.74,4351.79,4140,4565.13,4545.64,4293.85,3927.69,4233.85,4621.54,4415.38,4653.33,1691,1710,4.73,0,0,0,0,
102,4072.82,4165.64,4080.51,3880.51,4342.05,4142.05,4563.59,4535.38,4288.72,3923.08,4231.79,4614.87,4404.1,4645.64,1690,1710,4.737,0,0,0,0,
103,4065.13,4165.64,4078.46,3877.44,4355.38,4143.08,4564.62,4538.97,4294.87,3924.62,4223.59,4607.18,4396.41,4639.49,1691,1710,4.745,0,0,0,0,
104,4053.85,4169.74,4075.38,3891.79,4365.13,4139.49,4561.54,4542.56,4293.33,3923.08,4216.92,4601.03,4395.9,4629.23,1690,1709,4.753,0,0,0,0,
105,4050.26,4163.59,4074.36,3895.9,4354.36,4136.92,4556.41,4538.46,4282.56,3916.92,4217.44,4600.51,4396.92,4626.67,1691,1709,4.761,0,0,0,0,
106,4048.21,4153.33,4073.85,3877.95,4344.62,4138.46,4555.9,4533.85,4278.97,3911.79,4216.41,4597.44,4393.85,4620.51,1692,1708,4.769,0,0,0,0,
107,4048.72,4159.49,4074.87,3886.15,4358.97,4140,4556.92,4537.95,4281.54,3914.36,4215.38,4596.92,4392.82,4616.41,1691,1710,4.777,0,0,0,0,
108,4050.77,4165.13,4075.38,3902.56,4364.1,4140,4555.38,4537.44,4276.92,3915.38,4217.44,4601.54,4396.41,4617.44,1693,1708,4.784,0,0,0,0,
109,4041.03,4152.31,4066.67,3886.67,4344.1,4140,4551.79,4525.13,4271.79,3907.69,4215.38,4593.85,4390.77,4608.72,1690,1710,4.792,0,0,0,0,
110,4035.9,4149.74,4064.62,3881.03,4348.72,4140.51,4552.82,4525.13,4275.9,3907.18,4213.85,4590.26,4385.64,4604.1,1692,1710,4.8,0,0,0,0,
111,4046.67,4165.13,4075.9,3900,4370.26,4144.62,4562.05,4541.54,4283.59,3917.44,4217.95,4602.56,4394.87,4617.44,1691,1710,4.808,0,0,0,0,
112,4044.1,4160,4074.36,3891.28,4353.33,4146.15,4563.08,4543.59,4284.1,3920,4217.95,4600.51,4397.44,4617.44,1690,1711,4.816,0,0,0,0,
113,4030.77,4145.13,4061.54,3873.33,4332.82,4139.49,4553.85,4533.85,4281.03,3911.79,4213.33,4583.59,4382.56,4596.92,1690,1710,4.824,0,0,0,0,
114,4033.33,4151.28,4061.03,3887.18,4349.74,4138.46,4552.82,4534.36,4282.56,3908.72,4212.31,4584.62,4377.95,4595.9,1690,1711,4.831,0,0,0,0,
115,4040,4160,4069.74,3890.77,4366.67,4151.79,4557.95,4540.51,4284.1,3916.41,4218.46,4596.92,4393.33,4613.33,1689,1711,4.839,0,0,0,0,
116,4033.85,4147.69,4068.21,3874.87,4352.82,4152.31,4555.9,4534.36,4280,3917.95,4214.36,4591.79,4395.38,4606.67,1690,1711,4.847,0,0,0,0,
117,4028.72,4138.46,4060.51,3877.44,4336.92,4138.97,4552.31,4525.64,4274.87,3907.18,4203.59,4583.08,4379.49,4586.67,1691,1709,4.855,0,0,0,0,
118,4035.9,4156.92,4067.69,3893.33,4356.41,4140,4554.87,4530.26,4278.46,3906.15,4210.77,4592.82,4382.56,4597.44,1690,1710,4.863,0,0,0,0,
119,4041.03,4176.41,4076.92,3900,4382.56,4152.82,4558.46,4542.05,4290.26,3919.49,4223.08,4603.59,4399.49,4618.97,1691,1709,4.87,0,0,0,0,
120,4034.87,4167.69,4069.74,3895.38,4367.18,4152.82,4557.44,4540,4290.77,3928.21,4220.51,4597.95,4400.51,4613.85,1690,1710,4.878,0,0,0,0,
121,4031.28,4154.36,4063.08,3889.74,4343.59,4144.1,4555.9,4533.85,4283.08,3923.59,4215.9,4595.9,4393.33,4603.08,1691,1710,4.886,0,0,0,0,
122,4036.41,4161.54,4068.21,3889.74,4350.77,4141.54,4556.92,4535.38,4280,3913.85,4215.9,4598.46,4390.26,4604.1,1691,1709,4.894,0,0,0,0,
123,4037.44,4168.72,4068.72,3889.74,4358.46,4140.51,4556.41,4535.9,4278.46,3906.67,4213.85,4591.28,4386.67,4601.54,1692,1710,4.902,0,0,0,0,
124,4033.33,4163.08,4065.64,3886.15,4357.95,4139.49,4554.87,4536.92,4283.59,3916.92,4215.38,4589.74,4389.23,4600.51,1691,1709,4.91,0,0,0,0,
125,4031.28,4152.82,4067.69,3882.56,4358.46,4145.13,4557.95,4541.03,4289.23,3926.67,4217.44,4596.92,4391.28,4603.59,1691,1710,4.917,0,0,0,0,
126,4029.23,4154.87,4068.21,3887.69,4353.85,4147.18,4558.46,4540.51,4282.56,3917.44,4215.38,4596.92,4387.69,4601.03,1691,1710,4.925,0,0,0,0,
127,4029.74,4165.64,4067.69,3896.92,4350.77,4142.56,4552.82,4537.95,4281.54,3913.85,4217.44,4595.38,4394.36,4605.64,1691,1711,4.933,0,0,0,0,
128,4028.72,4162.56,4066.67,3892.31,4349.74,4146.15,4560.51,4545.13,4293.85,3926.15,4220.51,4599.49,4400,4610.77,1691,1709,4.941,0,0,0,0,
0,4023.08,4152.82,4062.56,3878.97,4350.26,4153.85,4570.77,4550.77,4297.44,3928.21,4217.95,4595.9,4391.79,4603.59,1690,1710,4.949,0,0,0,0,
1,4021.03,4151.28,4060.51,3875.38,4357.95,4151.79,4562.05,4550.26,4295.38,3922.05,4215.38,4588.21,4387.18,4600.51,1691,1709,4.956,0,0,0,0,
2,4023.59,4153.33,4061.03,3881.54,4358.97,4149.74,4555.9,4547.18,4297.44,3923.08,4215.9,4591.79,4390.26,4603.08,1689,1709,4.964,0,0,0,0,
3,4022.56,4151.79,4059.49,3878.97,4349.74,4152.82,4567.18,4543.08,4294.87,3925.13,4217.44,4595.9,4389.23,4600.51,1690,1709,4.972,0,0,0,0,
4,4020,4154.36,4062.05,3872.31,4351.79,4153.33,4572.31,4546.67,4296.41,3926.15,4217.95,4591.28,4387.69,4598.97,1690,1709,4.98,0,0,0,0,
5,4019.49,4148.72,4065.13,3876.41,4357.44,4152.31,4567.18,4550.26,4300.51,3925.64,4216.41,4585.64,4389.23,4596.92,1690,1709,4.988,0,0,0,0,
6,4017.95,4135.9,4060.51,3880.51,4352.82,4152.82,4568.21,4546.67,4296.41,3923.08,4213.33,4586.67,4389.23,4594.36,1691,1708,4.996,0,0,0,0,
7,4020,4141.54,4060,3868.72,4352.82,4153.33,4570.77,4546.67,4292.82,3923.08,4213.33,4594.36,4389.23,4601.54,1690,1709,5.003,0,0,0,0,
8,4024.62,4153.85,4066.15,3860.51,4358.97,4153.85,4569.74,4552.82,4295.9,3925.64,4215.38,4597.44,4385.13,4607.18,1690,1709,5.011,0,0,0,0,
9,4028.72,4152.31,4071.28,3875.9,4360.51,4154.87,4572.31,4555.9,4302.56,3928.21,4216.41,4597.44,4387.69,4604.1,1690,1710,5.019,0,0,0,0,
10,4029.23,4149.23,4072.82,3887.18,4357.95,4157.95,4574.36,4552.82,4302.56,3928.21,4217.44,4600,4393.33,4602.05,1691,1709,5.027,0,0,0,0,
11,4026.15,4153.33,4070.77,3877.44,4355.9,4155.38,4571.28,4544.1,4294.87,3924.1,4215.9,4602.05,4387.69,4600.51,1690,1711,5.035,0,0,0,0,
12,4028.72,4154.87,4070.77,3873.33,4362.56,4149.23,4568.21,4537.44,4292.82,3924.1,4216.41,4600,4381.54,4600,1691,1710,5.042,0,0,0,0,
13,4031.28,4155.38,4073.33,3881.03,4368.72,4150.26,4569.23,4542.56,4295.38,3924.1,4213.33,4600,4384.1,4601.03,1690,1710,5.05,0,0,0,0,
14,4023.59,4154.87,4068.72,3876.92,4360,4153.33,4568.72,4540,4291.28,3915.38,4203.59,4597.44,4381.03,4594.36,1692,1710,5.058,0,0,0,0,
15,4021.54,4152.31,4064.1,3868.72,4355.9,4153.33,4567.18,4537.44,4291.79,3914.36,4203.59,4594.36,4376.41,4590.77,1691,1709,5.066,0,0,0,0,
16,4027.18,4157.95,4067.18,3867.69,4363.59,4151.28,4568.21,4550.77,4304.1,3926.15,4212.82,4598.97,4382.56,4598.97,1691,1711,5.074,0,0,0,0,
17,4027.18,4167.18,4068.21,3870.26,4361.03,4152.31,4569.23,4557.44,4306.15,3929.23,4214.36,4601.03,4386.67,4603.08,1692,1709,5.082,0,0,0,0,
18,4031.28,4170.77,4067.69,3877.44,4354.36,4159.49,4572.82,4553.85,4298.46,3926.67,4213.33,4598.97,4388.72,4603.08,1691,1710,5.089,0,0,0,0,
19,4034.36,4164.62,4069.74,3878.46,4359.49,4162.05,4573.33,4553.33,4297.44,3929.23,4221.03,4600,4391.79,4604.1,1691,1710,5.097,0,0,0,0,
20,4023.08,4155.38,4064.1,3865.64,4356.92,4153.33,4567.69,4554.36,4297.44,3929.23,4220,4600,4388.21,4601.54,1691,1710,5.105,0,0,0,0,
21,4020.51,4158.46,4061.54,3861.54,4350.26,4149.23,4567.18,4551.79,4296.41,3927.18,4215.9,4599.49,4389.23,4598.97,1691,1710,5.113,0,0,0,0,
22,4038.46,4170.26,4070.77,3875.38,4357.95,4154.36,4567.18,4552.31,4296.92,3927.69,4224.1,4602.05,4398.46,4609.74,1690,1710,5.121,0,0,0,0,
23,4046.15,4171.79,4076.92,3880.51,4366.15,4149.74,4558.97,4553.33,4295.9,3929.74,4226.67,4602.56,4401.54,4617.95,1690,1710,5.128,0,0,0,0,
24,4039.49,4169.23,4074.87,3876.92,4366.15,4140.51,4554.87,4545.64,4293.33,3930.77,4217.95,4600,4398.97,4608.21,1690,1711,5.136,0,0,0,0,
25,4033.85,4170.77,4071.79,3877.95,4365.64,4143.59,4556.41,4541.03,4293.33,3929.23,4215.38,4601.03,4395.38,4594.87,1690,1710,5.144,0,0,0,0,
26,4032.31,4169.74,4068.21,3876.92,4362.05,4150.26,4555.9,4541.54,4293.33,3926.67,4218.97,4600.51,4393.33,4601.03,1691,1710,5.152,0,0,0,0,
27,4035.38,4173.33,4069.23,3878.97,4361.54,4153.85,4560.51,4540.51,4292.82,3927.18,4219.49,4601.03,4396.41,4614.36,1690,1710,5.16,0,0,0,0,
28,4038.97,4176.41,4073.33,3885.13,4370.26,4153.33,4568.72,4543.59,4294.87,3928.72,4217.95,4601.03,4398.46,4611.28,1690,1710,5.167,0,0,0,0,
29,4036.92,4165.64,4070.77,3880.51,4373.33,4152.82,4569.23,4550.26,4296.41,3926.67,4215.38,4592.82,4390.77,4601.54,1690,1709,5.175,0,0,0,0,
30,4028.72,4149.74,4064.1,3865.64,4362.05,4152.82,4567.69,4544.1,4294.87,3923.59,4212.82,4587.18,4378.97,4597.44,1690,1710,5.183,0,0,0,0,
31,4028.21,4152.82,4065.64,3867.69,4358.97,4153.85,4569.74,4540.51,4294.87,3926.15,4217.44,4595.38,4383.59,4600,1692,1709,5.191,0,0,0,0,
32,4033.33,4162.56,4071.79,3877.95,4356.41,4151.79,4567.69,4551.28,4297.44,3929.74,4221.03,4602.05,4395.9,4601.54,1690,1710,5.199,0,0,0,0,
33,4031.28,4158.97,4070.77,3870.77,4345.13,4148.72,4563.59,4548.21,4293.85,3926.15,4217.95,4598.97,4390.77,4602.05,1692,1711,5.207,0,0,0,0,
34,4029.23,4158.97,4067.18,3869.23,4356.41,4150.26,4565.64,4538.97,4292.31,3924.62,4215.9,4597.95,4380.51,4600.51,1691,1710,5.214,0,0,0,0,
35,4029.23,4164.62,4066.67,3879.49,4369.74,4152.31,4565.13,4542.05,4295.9,3929.23,4217.44,4596.92,4385.13,4591.79,1691,1711,5.222,0,0,0,0,
36,4023.08,4158.97,4065.64,3873.85,4354.36,4150.26,4556.41,4541.03,4289.74,3922.56,4213.33,4590.26,4388.21,4588.21,1691,1710,5.23,0,0,0,0,
37,4023.08,4160.51,4068.72,3867.18,4354.36,4151.79,4560,4542.05,4287.18,3917.44,4211.28,4593.33,4385.64,4598.46,1690,1710,5.238,0,0,0,0,
38,4029.74,4169.23,4076.41,3880,4374.36,4152.31,4569.74,4551.79,4294.87,3924.62,4217.95,4602.05,4385.13,4607.18,1691,1709,5.246,0,0,0,0,
39,4023.08,4158.97,4075.9,3873.33,4360,4140.51,4561.54,4547.18,4288.72,3921.03,4215.38,4601.54,4378.97,4601.54,1691,1708,5.254,0,0,0,0,
40,4022.56,4153.33,4069.74,3855.9,4345.13,4137.95,4552.31,4536.92,4281.03,3914.87,4207.69,4593.85,4374.87,4594.36,1692,1708,5.261,0,0,0,0,
41,4043.59,4172.82,4077.95,3871.28,4371.79,4152.82,4557.44,4541.03,4290.26,3924.1,4213.85,4598.46,4385.64,4602.56,1691,1710,5.269,0,0,0,0,
42,4052.82,4178.97,4091.28,3888.72,4383.08,4156.92,4558.97,4543.59,4291.79,3931.79,4223.08,4610.77,4392.82,4614.36,1693,1710,5.278,0,0,0,0,
43,4040.51,4169.74,4088.72,3883.59,4363.59,4150.26,4560.51,4541.54,4288.72,3925.64,4220,4609.74,4388.21,4611.28,1691,1710,5.285,0,0,0,0,
44,4033.85,4168.72,4076.92,3875.38,4352.31,4151.28,4566.67,4541.03,4294.36,3926.15,4217.95,4601.54,4385.13,4601.03,1692,1710,5.293,0,0,0,0,
45,4034.36,4167.18,4072.82,3870.26,4354.87,4148.21,4562.56,4538.97,4289.23,3927.69,4215.38,4600,4382.05,4600.51,1691,1709,5.301,0,0,0,0,
46,4028.72,4165.64,4075.38,3863.08,4363.08,4137.44,4554.36,4539.49,4278.97,3917.95,4203.59,4597.44,4378.46,4602.56,1690,1711,5.308,0,0,0,0,
47,4024.1,4167.69,4073.85,3864.62,4367.69,4136.41,4554.87,4540,4279.49,3912.31,4204.1,4595.38,4379.49,4600.51,1690,1709,5.316,0,0,0,0,
48,4028.72,4166.67,4072.31,3877.95,4357.44,4139.49,4553.85,4529.23,4275.9,3909.74,4212.82,4595.38,4378.97,4597.95,1689,1711,5.324,0,0,0,0,
49,4034.87,4167.18,4074.87,3882.56,4355.38,4145.13,4550.77,4518.97,4270.77,3908.72,4212.31,4590.77,4378.97,4598.46,1691,1710,5.332,0,0,0,0,
50,4036.41,4173.33,4077.44,3872.82,4374.36,4149.23,4550.26,4525.64,4279.49,3920.51,4213.85,4592.82,4391.28,4606.15,1690,1710,5.34,0,0,0,0,
51,4035.9,4170.77,4075.38,3862.56,4361.03,4140.51,4549.74,4532.82,4284.62,3924.1,4218.46,4601.03,4396.92,4604.62,1691,1710,5.347,0,0,0,0,
52,4038.97,4167.69,4076.92,3867.69,4329.74,4142.05,4550.26,4528.72,4277.95,3910.26,4215.9,4599.49,4384.1,4595.9,1690,1709,5.355,0,0,0,0,
53,4048.21,4178.97,4082.05,3880.51,4352.31,4155.38,4552.31,4532.31,4284.62,3915.9,4216.41,4600,4386.15,4605.13,1692,1709,5.363,0,0,0,0,
54,4046.67,4180.51,4076.92,3882.56,4383.08,4150.26,4551.28,4542.56,4296.41,3931.79,4221.03,4601.54,4395.9,4614.36,1690,1708,5.371,0,0,0,0,
55,4034.87,4166.67,4066.67,3876.41,4369.74,4142.05,4554.36,4540.51,4289.74,3920,4215.9,4593.85,4386.67,4603.08,1691,1709,5.379,0,0,0,0,
56,4032.82,4163.59,4065.13,3874.87,4356.41,4153.33,4567.69,4534.36,4278.97,3908.21,4209.74,4590.77,4377.95,4596.92,1691,1707,5.387,0,0,0,0,
57,4032.82,4169.74,4064.1,3871.28,4365.64,4158.97,4570.77,4539.49,4279.49,3911.79,4205.13,4591.79,4382.05,4601.03,1691,1709,5.394,0,0,0,0,
58,4027.69,4167.69,4062.05,3864.1,4363.59,4151.28,4559.49,4540,4281.54,3903.08,4199.49,4583.59,4375.9,4591.28,1691,1707,5.402,0,0,0,0,
59,4028.72,4164.62,4065.64,3865.13,4349.23,4148.21,4553.85,4527.18,4277.44,3891.28,4198.97,4580.51,4367.69,4580.51,1691,1708,5.411,0,0,0,0,
60,4032.82,4164.62,4067.18,3865.64,4343.59,4148.72,4556.41,4520.51,4272.31,3892.82,4200.51,4583.59,4372.31,4585.64,1690,1707,5.418,0,0,0,0,
61,4037.95,4168.21,4069.23,3864.1,4353.33,4151.79,4556.92,4530.26,4276.92,3901.03,4204.62,4588.72,4382.05,4591.79,1689,1707,5.426,0,0,0,0,
62,4050.26,4181.03,4081.03,3873.85,4369.74,4153.33,4555.9,4542.56,4296.92,3917.44,4218.46,4600,4393.85,4601.54,1690,1707,5.434,0,0,0,0,
63,4055.38,4182.56,4084.1,3881.54,4369.23,4151.28,4555.9,4543.08,4307.69,3926.67,4227.69,4606.67,4401.03,4612.31,1690,1706,5.441,0,0,0,0,
64,4049.23,4180,4078.46,3880.51,4364.1,4149.74,4556.41,4541.03,4293.85,3917.44,4223.08,4605.13,4397.95,4609.23,1690,1708,5.449,0,0,0,0,
65,4043.59,4181.54,4077.95,3882.56,4364.1,4145.13,4556.41,4535.38,4280,3909.23,4213.33,4600.51,4392.82,4602.56,1690,1708,5.457,0,0,0,0,
66,4039.49,4173.85,4071.79,3875.38,4352.31,4137.95,4556.92,4526.15,4280.51,3907.18,4204.62,4589.23,4386.15,4598.97,1691,1709,5.471,0,0,0,0,
67,4030.77,4162.05,4060,3860.51,4342.05,4135.9,4556.41,4521.03,4273.85,3897.95,4200.51,4580.51,4375.9,4588.72,1690,1708,5.473,0,0,0,0,
68,4022.56,4164.62,4054.87,3856.41,4346.67,4143.08,4556.41,4522.05,4264.1,3888.21,4198.46,4581.54,4370.77,4579.49,1690,1710,5.48,0,0,0,0,
69,4028.72,4170.26,4058.46,3866.15,4352.31,4152.82,4557.95,4527.69,4270.77,3891.28,4200,4583.59,4376.41,4583.08,1692,1709,5.488,0,0,0,0,
70,4041.03,4168.72,4064.62,3873.33,4355.38,4154.36,4557.44,4534.36,4281.54,3903.08,4207.18,4584.62,4386.67,4590.77,1690,1710,5.496,0,0,0,0,
71,4048.21,4177.95,4072.31,3878.46,4361.03,4152.31,4555.9,4538.46,4288.72,3915.9,4216.92,4593.85,4395.9,4601.54,1691,1709,5.504,0,0,0,0,
72,4052.31,4190.26,4080.51,3885.13,4363.59,4152.31,4555.38,4541.54,4301.54,3927.18,4226.67,4605.13,4400.51,4615.9,1691,1709,5.512,0,0,0,0,
73,4054.36,4188.21,4084.1,3881.54,4357.44,4151.28,4554.87,4543.08,4304.62,3928.21,4227.18,4606.15,4401.54,4618.97,1691,1710,5.52,0,0,0,0,
74,4049.74,4178.46,4080.51,3868.21,4349.23,4148.72,4555.38,4541.03,4289.74,3916.92,4216.92,4601.54,4400,4614.36,1692,1709,5.527,0,0,0,0,
75,4044.62,4173.33,4076.92,3860.51,4348.72,4146.15,4556.92,4540.51,4280,3909.23,4214.36,4601.54,4395.38,4606.67,1692,1709,5.535,0,0,0,0,
76,4042.05,4170.26,4078.46,3865.13,4347.69,4141.03,4557.44,4541.03,4282.05,3908.21,4216.92,4603.59,4385.13,4599.49,1692,1709,5.543,0,0,0,0,
77,4032.31,4162.05,4072.82,3862.56,4331.79,4137.95,4557.44,4537.44,4281.03,3900,4204.62,4599.49,4373.33,4593.33,1692,1710,5.551,0,0,0,0,
78,4026.67,4164.1,4064.62,3857.95,4328.72,4138.46,4556.92,4536.92,4276.41,3894.36,4195.9,4592.82,4372.31,4594.36,1690,1710,5.559,0,0,0,0,
79,4040.51,4174.87,4071.28,3867.18,4355.9,4139.49,4555.9,4539.49,4280,3905.64,4211.79,4599.49,4388.72,4612.31,1691,1709,5.565,0,0,0,0,
80,4067.18,4185.64,4088.72,3878.46,4367.69,4144.1,4556.92,4541.03,4290.77,3915.9,4229.74,4619.49,4408.21,4642.05,1689,1709,5.574,0,0,0,0,
81,4096.92,4201.03,4102.56,3885.13,4351.28,4146.15,4556.92,4543.59,4292.82,3915.38,4234.36,4631.28,4417.95,4669.23,1691,1709,5.582,0,0,0,0,
82,4128.72,4225.64,4110.77,3891.79,4348.21,4141.54,4554.36,4538.97,4284.62,3912.31,4232.82,4631.79,4424.1,4697.95,1689,1709,5.59,0,0,0,0,
83,4177.95,4250.77,4122.56,3901.54,4353.85,4135.38,4549.74,4525.64,4273.85,3908.72,4234.36,4642.05,4433.33,4745.64,1690,1709,5.598,0,0,0,0,
84,4243.59,4275.9,4146.67,3916.92,4343.59,4130.77,4543.08,4518.97,4265.64,3905.13,4241.54,4663.59,4442.05,4802.56,1690,1709,5.606,0,0,0,0,
85,4296.92,4304.62,4171.79,3935.38,4335.38,4126.67,4539.49,4525.64,4265.64,3907.18,4250.77,4682.56,4451.79,4851.79,1691,1710,5.613,0,0,0,0,
86,4320.51,4321.03,4175.9,3947.18,4335.9,4122.05,4540.51,4522.56,4262.56,3903.08,4250.77,4688.72,4461.03,4879.49,1690,1709,5.621,0,0,0,0,
87,4326.67,4318.46,4174.87,3941.03,4334.36,4123.59,4538.97,4508.21,4250.26,3891.28,4247.18,4686.15,4463.08,4886.67,1690,1711,5.629,0,0,0,0,
88,4325.64,4312.31,4185.13,3928.72,4335.38,4130.77,4538.46,4509.74,4246.15,3888.72,4246.67,4689.23,4457.95,4893.33,1692,1708,5.637,0,0,0,0,
89,4314.87,4314.87,4185.64,3926.67,4343.08,4128.21,4544.62,4521.54,4257.95,3895.9,4250.26,4691.79,4460.51,4894.87,1691,1710,5.645,0,0,0,0,
90,4298.97,4314.87,4167.69,3933.33,4348.21,4121.54,4546.67,4522.56,4267.18,3897.95,4245.64,4683.08,4463.08,4877.95,1693,1710,5.652,0,0,0,0,
91,4277.44,4301.03,4154.36,3923.08,4348.21,4127.18,4544.62,4522.05,4270.26,3896.92,4234.36,4668.72,4450.26,4849.23,1692,1709,5.66,0,0,0,0,
92,4251.79,4287.18,4152.82,3909.23,4351.79,4136.92,4550.26,4532.82,4276.41,3904.1,4237.44,4664.1,4439.49,4820,1692,1709,5.668,0,0,0,0,
93,4234.87,4284.1,4150.26,3917.95,4354.36,4141.54,4554.87,4540.51,4282.05,3912.82,4247.18,4667.69,4447.18,4794.36,1691,1709,5.676,0,0,0,0,
94,4211.28,4272.82,4136.92,3917.95,4338.97,4138.97,4544.62,4535.38,4278.46,3911.28,4238.97,4661.03,4444.62,4771.79,1692,1710,5.684,0,0,0,0,
95,4176.92,4248.21,4121.03,3896.92,4332.82,4132.82,4535.9,4531.79,4274.36,3907.69,4228.21,4642.05,4423.59,4745.13,1692,1710,5.692,0,0,0,0,
96,4158.97,4236.41,4118.97,3890.77,4355.9,4134.36,4546.15,4536.41,4280.51,3910.26,4232.31,4634.36,4420.51,4719.49,1691,1711,5.699,0,0,0,0,
97,4153.85,4228.72,4124.62,3894.36,4362.05,4139.49,4554.87,4542.05,4284.62,3912.31,4236.41,4642.05,4429.23,4705.64,1690,1710,5.707,0,0,0,0,
98,4135.38,4215.38,4117.44,3880.51,4342.05,4136.92,4554.87,4541.03,4283.08,3913.85,4230.26,4637.95,4420,4691.79,1689,1712,5.715,0,0,0,0,
99,4107.18,4209.23,4101.54,3874.36,4342.05,4143.08,4561.54,4539.49,4284.62,3913.85,4221.03,4622.56,4404.62,4673.33,1691,1710,5.723,0,0,0,0,
100,4088.21,4206.67,4086.67,3884.1,4357.95,4152.82,4567.69,4540.51,4285.13,3906.67,4214.87,4611.79,4397.95,4655.9,1689,1711,5.731,0,0,0,0,
101,4078.97,4197.95,4080,3882.56,4358.97,4150.77,4560,4541.03,4280.51,3903.59,4211.79,4604.1,4395.38,4637.95,1690,1710,5.739,0,0,0,0,
102,4080,4199.49,4082.05,3875.9,4355.38,4149.23,4553.33,4537.44,4280,3910.26,4211.28,4600,4396.92,4630.26,1690,1710,5.746,0,0,0,0,
103,4082.56,4209.74,4084.62,3877.95,4360.51,4152.82,4552.31,4534.36,4279.49,3911.28,4213.33,4603.08,4397.95,4629.74,1691,1711,5.754,0,0,0,0,
104,4076.92,4205.64,4081.03,3879.49,4358.97,4150.77,4549.23,4534.87,4276.92,3906.67,4213.85,4601.54,4393.33,4620,1691,1710,5.762,0,0,0,0,
105,4074.87,4198.46,4079.49,3878.97,4352.82,4148.21,4549.23,4539.49,4282.05,3913.33,4213.85,4597.44,4400,4621.03,1691,1711,5.77,0,0,0,0,
106,4077.44,4199.49,4087.18,3878.97,4348.21,4151.79,4553.33,4541.03,4289.23,3924.62,4217.44,4604.62,4406.67,4628.72,1692,1711,5.778,0,0,0,0,
107,4073.33,4202.05,4089.74,3879.49,4350.26,4153.33,4556.41,4541.54,4293.33,3928.21,4221.03,4612.31,4404.62,4624.62,1691,1712,5.785,0,0,0,0,
108,4061.03,4198.97,4081.54,3880.51,4357.95,4141.54,4555.38,4542.05,4289.74,3922.05,4218.97,4606.15,4401.03,4615.9,1692,1710,5.793,0,0,0,0,
109,4052.31,4189.23,4076.41,3876.92,4359.49,4137.44,4552.31,4540,4282.56,3911.79,4212.31,4598.97,4396.41,4610.77,1691,1711,5.801,0,0,0,0,
110,4048.72,4177.44,4076.41,3866.67,4347.69,4147.18,4553.33,4534.36,4278.46,3908.21,4203.59,4595.9,4385.64,4603.08,1692,1710,5.809,0,0,0,0,
111,4038.46,4170.26,4067.18,3858.97,4340,4143.08,4555.38,4530.77,4277.44,3908.72,4200,4587.69,4378.97,4591.28,1690,1711,5.817,0,0,0,0,
112,4029.23,4169.23,4055.9,3858.46,4347.18,4132.31,4551.28,4533.85,4277.95,3907.69,4198.97,4581.54,4379.49,4583.59,1691,1711,5.824,0,0,0,0,
113,4030.26,4170.77,4055.38,3860,4354.87,4143.59,4550.77,4535.38,4277.44,3908.72,4196.41,4583.08,4378.46,4580.51,1691,1710,5.832,0,0,0,0,
114,4037.44,4173.33,4063.59,3865.13,4358.97,4157.95,4556.41,4537.44,4280.51,3912.31,4205.64,4587.18,4380.51,4584.1,1690,1712,5.84,0,0,0,0,
115,4037.95,4171.28,4065.64,3868.21,4353.85,4153.85,4555.38,4542.05,4289.74,3913.33,4214.87,4586.67,4386.67,4586.67,1690,1710,5.848,0,0,0,0,
116,4028.21,4167.69,4056.92,3861.54,4344.1,4150.77,4552.31,4540,4290.77,3910.77,4205.64,4582.56,4384.62,4584.62,1689,1711,5.856,0,0,0,0,
117,4028.72,4168.72,4061.03,3861.03,4344.1,4156.92,4559.49,4535.38,4283.59,3912.82,4201.54,4587.69,4383.08,4590.77,1690,1710,5.864,0,0,0,0,
118,4045.13,4171.28,4077.95,3868.21,4350.77,4161.54,4572.31,4544.62,4290.77,3920.51,4215.9,4601.54,4395.38,4604.1,1689,1710,5.871,0,0,0,0,
119,4048.21,4171.79,4081.03,3864.1,4351.79,4154.36,4573.33,4557.95,4301.03,3924.1,4220.51,4605.13,4402.56,4603.59,1691,1709,5.879,0,0,0,0,
120,4036.41,4169.74,4071.79,3860,4348.72,4140.51,4566.15,4551.28,4288.72,3921.54,4211.79,4599.49,4389.23,4585.64,1690,1710,5.887,0,0,0,0,
121,4037.44,4171.79,4074.36,3864.62,4350.77,4142.56,4566.67,4540.51,4281.03,3923.59,4212.31,4600,4384.1,4587.69,1691,1709,5.895,0,0,0,0,
122,4046.67,4174.87,4079.49,3862.56,4360.51,4153.85,4568.21,4547.18,4293.85,3927.69,4216.92,4603.59,4394.87,4600,1690,1710,5.903,0,0,0,0,
123,4043.59,4172.82,4074.36,3863.08,4367.18,4152.82,4558.97,4553.33,4299.49,3927.18,4215.38,4600,4397.44,4592.31,1692,1710,5.911,0,0,0,0,
124,4038.46,4178.97,4069.74,3878.97,4369.74,4147.69,4554.36,4551.28,4298.46,3932.31,4217.95,4600.51,4394.87,4589.23,1692,1709,5.918,0,0,0,0,
125,4036.92,4188.21,4066.67,3881.54,4364.1,4155.9,4560.51,4552.31,4303.59,3937.95,4220,4597.95,4396.92,4593.85,1691,1710,5.926,0,0,0,0,
126,4033.85,4178.46,4062.56,3866.67,4350.26,4165.64,4566.15,4554.87,4308.72,3936.41,4217.44,4588.72,4394.87,4587.18,1692,1709,5.934,0,0,0,0,
127,4038.46,4168.72,4068.72,3863.59,4350.77,4164.1,4568.21,4563.59,4314.36,3941.54,4224.62,4595.38,4403.59,4592.82,1690,1710,5.942,0,0,0,0,
128,4048.21,4172.31,4078.46,3866.15,4358.46,4156.41,4570.77,4569.23,4318.46,3946.15,4235.9,4611.79,4414.87,4613.85,1691,1710,5.95,0,0,0,0,
0,4042.05,4172.82,4076.41,3864.1,4347.69,4155.38,4571.28,4565.13,4311.28,3941.54,4233.85,4616.41,4410.77,4617.44,1691,1710,5.957,0,0,0,0,
1,4036.92,4166.67,4079.49,3865.13,4349.23,4161.03,4575.9,4566.15,4308.72,3941.54,4233.85,4619.49,4407.69,4607.18,1691,1710,5.965,0,0,0,0,
2,4038.97,4162.05,4079.49,3859.49,4357.44,4152.31,4571.79,4566.15,4309.23,3937.95,4229.23,4613.85,4401.54,4594.87,1689,1711,5.973,0,0,0,0,
3,4018.46,4152.82,4050.77,3841.03,4334.36,4128.72,4547.18,4543.08,4289.23,3911.28,4196.92,4579.49,4372.31,4571.28,1691,1710,5.981,0,0,0,0,
4,3987.18,4136.92,4020.51,3829.23,4313.85,4117.44,4533.33,4520.51,4264.1,3887.69,4165.64,4550.26,4345.64,4544.1,1691,1710,5.989,0,0,0,0,
5,3982.56,4127.69,4019.49,3829.74,4323.08,4123.08,4538.97,4520.51,4260,3890.77,4164.62,4549.23,4341.03,4530.77,1691,1708,5.997,0,0,0,0,
6,3989.74,4130.26,4031.28,3829.23,4328.21,4130.77,4538.97,4523.08,4269.23,3892.82,4168.72,4554.36,4337.44,4537.95,1691,1709,6.004,0,0,0,0,
7,3987.69,4135.9,4032.82,3827.18,4324.1,4131.28,4536.92,4522.05,4273.33,3884.1,4166.67,4552.31,4336.41,4550.77,1692,1709,6.012,0,0,0,0,
8,3988.21,4133.85,4030.26,3827.18,4323.08,4130.77,4538.97,4523.59,4272.31,3887.69,4174.36,4552.31,4352.82,4553.85,1691,1710,6.02,0,0,0,0,
9,3990.77,4141.54,4031.79,3832.31,4326.67,4135.9,4538.46,4523.08,4275.9,3904.1,4185.64,4560,4366.67,4551.79,1692,1709,6.028,0,0,0,0,
10,3994.36,4154.87,4039.49,3842.05,4334.87,4139.49,4543.59,4529.23,4281.03,3911.28,4189.23,4569.23,4364.62,4552.31,1691,1709,6.036,0,0,0,0,
11,4003.59,4153.85,4044.62,3846.67,4337.44,4136.92,4553.85,4538.97,4278.97,3906.67,4192.31,4573.85,4366.15,4557.44,1692,1709,6.044,0,0,0,0,
12,4015.9,4156.92,4052.31,3847.69,4334.87,4143.08,4554.87,4543.59,4283.59,3908.72,4201.54,4580,4380.51,4572.82,1691,1710,6.05,0,0,0,0,
13,4023.59,4165.64,4059.49,3850.77,4334.36,4151.79,4555.9,4543.59,4291.79,3916.41,4205.64,4588.72,4383.08,4583.59,1691,1710,6.059,0,0,0,0,
14,4017.44,4158.97,4054.36,3851.28,4325.64,4141.03,4555.38,4543.08,4286.15,3913.33,4200.51,4586.15,4371.79,4573.33,1691,1709,6.067,0,0,0,0,
15,4006.67,4151.79,4050.77,3842.56,4322.05,4132.31,4546.67,4537.95,4276.92,3907.69,4196.92,4577.44,4369.74,4568.21,1691,1710,6.074,0,0,0,0,
16,4005.64,4155.38,4050.26,3837.95,4335.38,4137.44,4540.51,4527.18,4274.36,3910.26,4196.92,4574.36,4371.28,4569.23,1691,1709,6.083,0,0,0,0,
17,4005.13,4155.9,4040.51,3846.15,4341.03,4132.31,4535.9,4520.51,4267.69,3904.62,4190.77,4571.79,4364.62,4558.46,1690,1711,6.091,0,0,0,0,
18,4000,4157.44,4031.79,3844.1,4332.31,4127.18,4530.26,4518.97,4261.54,3894.87,4182.56,4567.18,4361.54,4556.41,1692,1712,6.097,0,0,0,0,
19,4002.05,4165.13,4039.49,3835.9,4336.41,4134.36,4534.36,4521.03,4268.21,3899.49,4186.15,4565.64,4369.23,4569.23,1690,1711,6.105,0,0,0,0,
20,4007.18,4170.26,4046.67,3844.1,4346.15,4135.38,4540.51,4524.1,4278.97,3912.82,4196.41,4570.26,4374.36,4573.33,1691,1711,6.114,0,0,0,0,
21,4008.21,4170.26,4044.1,3854.36,4339.49,4131.79,4537.44,4526.15,4279.49,3913.33,4196.41,4574.36,4369.23,4568.72,1690,1710,6.122,0,0,0,0,
22,4010.26,4168.21,4043.59,3848.21,4336.41,4133.85,4535.9,4524.1,4267.69,3900,4188.21,4571.28,4364.1,4566.67,1692,1709,6.13,0,0,0,0,
23,4013.33,4167.69,4045.64,3845.64,4342.05,4135.38,4537.95,4522.05,4261.54,3894.87,4185.64,4569.74,4367.18,4570.26,1690,1709,6.137,0,0,0,0,
24,4012.82,4168.72,4049.23,3848.72,4337.44,4136.92,4538.97,4527.69,4271.28,3907.69,4190.26,4576.92,4368.21,4571.28,1691,1710,6.145,0,0,0,0,
25,4010.26,4168.21,4051.79,3846.15,4330.26,4133.33,4539.49,4530.26,4275.38,3912.31,4191.28,4582.05,4365.13,4561.54,1691,1709,6.153,0,0,0,0,
26,4004.1,4164.1,4045.13,3846.67,4325.64,4122.05,4537.95,4521.03,4262.56,3894.87,4183.59,4570.26,4363.59,4554.87,1691,1711,6.161,0,0,0,0,
27,4000.51,4165.64,4038.97,3853.33,4328.72,4122.56,4535.9,4517.44,4257.44,3890.77,4184.1,4565.13,4366.15,4565.64,1692,1710,6.169,0,0,0,0,
28,4004.1,4170.77,4043.59,3850.77,4335.9,4135.38,4538.46,4526.67,4267.69,3907.18,4198.97,4578.46,4371.79,4571.79,1690,1711,6.176,0,0,0,0,
29,4004.62,4163.08,4046.67,3834.87,4329.74,4137.44,4538.46,4526.67,4267.69,3906.67,4200.51,4579.49,4372.31,4567.18,1691,1710,6.184,0,0,0,0,
30,4002.56,4158.46,4042.05,3833.33,4324.62,4135.38,4536.92,4517.95,4262.56,3893.85,4188.72,4569.23,4367.69,4567.69,1690,1709,6.191,0,0,0,0,
31,4005.64,4165.13,4043.08,3846.67,4338.46,4138.46,4538.46,4525.13,4270.77,3893.85,4190.26,4570.26,4368.72,4568.72,1690,1709,6.199,0,0,0,0,
32,4005.13,4161.54,4044.62,3844.62,4346.15,4136.92,4539.49,4536.41,4279.49,3899.49,4197.44,4573.85,4369.23,4566.15,1690,1709,6.207,0,0,0,0,
33,4002.56,4156.92,4040,3843.08,4332.82,4136.92,4540.51,4531.79,4280.51,3897.95,4196.41,4572.31,4369.74,4568.72,1691,1709,6.216,0,0,0,0,
34,4006.67,4164.1,4037.95,3849.74,4324.1,4142.56,4541.03,4523.08,4276.41,3895.9,4192.31,4570.77,4370.77,4571.28,1691,1708,6.222,0,0,0,0,
35,4008.21,4165.64,4035.38,3842.56,4328.21,4142.05,4538.46,4522.05,4268.21,3894.87,4189.23,4571.79,4368.72,4564.1,1691,1709,6.231,0,0,0,0,
36,4003.08,4158.46,4035.38,3829.23,4325.13,4137.44,4537.44,4521.03,4263.59,3892.31,4186.15,4572.31,4366.15,4552.82,1691,1707,6.239,0,0,0,0,
37,4001.03,4154.87,4038.97,3833.33,4319.49,4136.92,4534.87,4518.46,4262.56,3890.77,4184.62,4569.23,4366.67,4557.44,1690,1709,6.247,0,0,0,0,
38,4009.74,4158.46,4046.15,3845.13,4329.23,4137.95,4530.77,4520,4263.59,3892.31,4190.26,4571.79,4370.26,4571.28,1692,1708,6.254,0,0,0,0,
39,4018.97,4167.18,4051.79,3850.77,4340.51,4135.9,4534.36,4522.56,4271.79,3897.95,4201.03,4585.64,4373.85,4573.33,1691,1710,6.262,0,0,0,0,
40,4013.33,4172.31,4046.67,3848.21,4333.85,4133.33,4539.49,4527.18,4280,3898.97,4203.59,4587.18,4374.87,4568.21,1692,1709,6.27,0,0,0,0,
41,4007.69,4161.54,4044.62,3841.54,4330.26,4133.33,4538.97,4528.72,4279.49,3893.33,4197.44,4573.85,4371.28,4569.23,1690,1710,6.277,0,0,0,0,
42,4015.38,4158.97,4052.31,3843.59,4337.95,4135.9,4540,4526.67,4277.44,3891.79,4196.92,4574.87,4373.33,4573.33,1692,1710,6.286,0,0,0,0,
43,4013.85,4166.15,4050.26,3847.18,4332.31,4135.9,4542.05,4524.62,4271.79,3891.79,4191.79,4576.92,4372.31,4568.72,1691,1710,6.294,0,0,0,0,
44,4000.51,4159.49,4041.03,3844.1,4318.97,4133.85,4539.49,4520.51,4262.05,3889.23,4184.1,4568.72,4361.54,4559.49,1691,1709,6.301,0,0,0,0,
45,4006.67,4155.38,4048.21,3844.62,4325.64,4137.95,4540.51,4525.13,4263.08,3892.82,4192.82,4571.79,4364.1,4561.54,1691,1709,6.309,0,0,0,0,
46,4018.97,4167.69,4055.38,3849.23,4338.97,4139.49,4543.59,4533.85,4267.69,3897.44,4201.03,4584.1,4373.85,4569.74,1691,1709,6.316,0,0,0,0,
47,4014.87,4174.87,4049.23,3848.72,4336.41,4136.92,4542.05,4530.26,4266.67,3896.41,4200,4585.64,4373.33,4569.23,1691,1707,6.324,0,0,0,0,
48,4011.79,4159.49,4049.23,3843.08,4321.54,4134.87,4538.46,4521.03,4260.51,3892.82,4196.92,4581.54,4366.15,4567.18,1690,1708,6.333,0,0,0,0,
49,4010.77,4153.33,4054.87,3841.54,4320.51,4135.9,4540,4521.03,4256.41,3890.26,4192.31,4580.51,4364.1,4568.72,1692,1708,6.341,0,0,0,0,
50,4006.15,4167.18,4051.79,3845.13,4336.41,4137.44,4541.03,4524.1,4263.59,3892.31,4186.15,4580,4365.64,4568.21,1690,1709,6.347,0,0,0,0,
51,4005.64,4167.69,4047.69,3846.67,4336.92,4137.95,4537.44,4522.05,4272.31,3895.9,4185.13,4580.51,4365.13,4568.21,1692,1710,6.356,0,0,0,0,
52,4013.85,4160,4052.82,3846.15,4322.05,4138.46,4543.59,4525.13,4273.33,3895.38,4191.28,4583.08,4368.72,4569.23,1691,1710,6.364,0,0,0,0,
53,4020.51,4162.56,4062.56,3845.13,4322.56,4140.51,4554.36,4534.87,4275.9,3902.05,4199.49,4587.18,4372.82,4568.72,1691,1710,6.372,0,0,0,0,
54,4023.59,4169.23,4065.13,3846.67,4340.51,4141.03,4548.21,4539.49,4280.51,3912.31,4202.05,4589.74,4375.9,4574.36,1691,1708,6.379,0,0,0,0,
55,4018.46,4167.18,4056.41,3849.23,4347.69,4137.44,4536.92,4535.9,4280.51,3904.62,4198.97,4585.64,4372.82,4576.92,1691,1709,6.387,0,0,0,0,
56,4014.36,4167.18,4049.74,3851.79,4338.97,4135.38,4538.46,4536.41,4276.41,3893.85,4198.46,4585.13,4367.69,4569.74,1690,1708,6.394,0,0,0,0,
57,4016.92,4165.64,4050.77,3850.26,4330.26,4137.95,4541.54,4537.95,4269.74,3897.44,4194.36,4584.62,4366.67,4567.18,1690,1709,6.402,0,0,0,0,
58,4015.38,4158.46,4052.31,3846.15,4324.62,4135.38,4537.95,4527.18,4262.05,3895.38,4184.62,4575.38,4365.64,4569.23,1690,1709,6.411,0,0,0,0,
59,4014.36,4159.49,4052.31,3853.33,4323.59,4127.18,4537.44,4520,4261.03,3891.28,4186.67,4574.87,4364.1,4565.64,1691,1709,6.419,0,0,0,0,
60,4019.49,4168.72,4057.44,3859.49,4330.77,4130.26,4541.03,4528.21,4269.23,3899.49,4197.95,4585.13,4371.79,4566.67,1690,1708,6.426,0,0,0,0,
61,4026.15,4175.9,4064.1,3854.36,4336.92,4143.08,4543.59,4540,4280.51,3903.08,4203.08,4589.23,4383.08,4582.05,1691,1710,6.434,0,0,0,0,
62,4027.18,4174.36,4061.54,3851.79,4331.28,4141.03,4541.54,4536.41,4280.51,3901.54,4203.08,4586.15,4384.1,4587.69,1691,1709,6.441,0,0,0,0,
63,4024.62,4168.72,4057.95,3848.72,4324.62,4129.74,4536.92,4523.08,4272.82,3907.18,4202.56,4585.64,4379.49,4578.46,1691,1710,6.449,0,0,0,0,
64,4022.05,4169.74,4060,3846.67,4333.33,4131.79,4537.95,4523.59,4275.38,3911.28,4202.56,4585.13,4381.54,4570.77,1691,1709,6.457,0,0,0,0,
65,4019.49,4174.87,4062.05,3857.95,4345.64,4138.97,4541.54,4535.9,4281.03,3909.23,4204.1,4585.13,4382.56,4571.28,1691,1709,6.465,0,0,0,0,
66,4020.51,4173.85,4059.49,3866.15,4344.1,4138.97,4540.51,4540.51,4280,3910.77,4205.64,4589.74,4381.54,4578.97,1692,1708,6.474,0,0,0,0,
67,4018.46,4168.72,4054.87,3851.79,4330.77,4137.95,4538.46,4533.85,4274.87,3911.79,4201.54,4588.72,4383.08,4582.56,1691,1709,6.481,0,0,0,0,
68,4012.82,4167.69,4050.26,3843.59,4318.97,4138.97,4541.03,4525.13,4267.69,3901.03,4196.92,4575.9,4381.03,4573.85,1692,1708,6.489,0,0,0,0,
69,4009.74,4169.74,4049.23,3853.85,4321.03,4137.95,4542.05,4521.03,4261.54,3892.82,4198.46,4570.26,4376.41,4564.62,1690,1709,6.496,0,0,0,0,
70,4018.97,4177.95,4056.41,3861.03,4338.46,4137.44,4539.49,4524.62,4266.67,3903.08,4200.51,4583.08,4378.46,4572.82,1691,1710,6.504,0,0,0,0,
71,4027.18,4188.72,4062.05,3866.67,4352.82,4138.46,4539.49,4528.72,4275.38,3913.33,4203.08,4591.28,4385.13,4586.67,1690,1710,6.513,0,0,0,0,
72,4025.64,4189.23,4059.49,3869.23,4347.18,4138.46,4541.54,4525.13,4276.92,3912.31,4208.72,4586.15,4387.69,4585.64,1690,1711,6.519,0,0,0,0,
73,4022.05,4178.46,4060.51,3851.79,4332.31,4140,4542.56,4523.08,4272.82,3908.72,4208.21,4587.18,4385.64,4577.44,1690,1710,6.527,0,0,0,0,
74,4015.9,4177.44,4057.95,3842.56,4331.28,4138.97,4539.49,4523.08,4268.21,3902.05,4204.1,4586.67,4377.44,4572.31,1690,1711,6.536,0,0,0,0,
75,4016.92,4181.54,4050.77,3861.54,4338.46,4136.41,4538.97,4523.59,4267.18,3896.41,4199.49,4576.92,4371.28,4571.79,1689,1710,6.544,0,0,0,0,
76,4018.97,4174.87,4050.77,3866.15,4330.26,4135.38,4540,4522.56,4265.64,3895.9,4189.23,4570.77,4370.77,4571.28,1690,1710,6.551,0,0,0,0,
77,4009.74,4166.15,4052.31,3846.15,4323.59,4137.95,4540,4521.54,4264.1,3893.85,4187.18,4570.77,4369.23,4571.79,1691,1709,6.559,0,0,0,0,
78,4007.18,4168.21,4049.23,3848.21,4338.46,4142.05,4544.1,4528.21,4275.9,3898.97,4198.97,4575.38,4371.79,4569.23,1690,1710,6.597,0,0,0,0,
79,4020.51,4178.46,4054.36,3867.69,4353.85,4143.08,4549.23,4538.97,4288.21,3912.31,4203.59,4583.59,4381.03,4568.21,1692,1709,6.597,0,0,0,0,
80,4024.1,4182.56,4062.05,3863.08,4349.74,4139.49,4550.77,4540,4278.46,3914.36,4201.03,4587.18,4382.56,4573.85,1691,1710,6.597,0,0,0,0,
81,4011.79,4172.82,4059.49,3846.67,4334.36,4136.92,4544.62,4526.15,4262.05,3908.21,4202.56,4583.59,4374.87,4571.28,1692,1710,6.597,0,0,0,0,
82,4014.87,4167.18,4058.97,3852.31,4328.21,4138.46,4542.05,4522.56,4265.13,3908.21,4200.51,4583.08,4374.87,4567.18,1692,1708,6.6,0,0,0,0,
83,4028.21,4180.51,4061.54,3865.64,4334.87,4140,4549.74,4534.87,4275.9,3910.26,4202.56,4587.69,4387.69,4576.92,1692,1710,6.606,0,0,0,0,
84,4026.15,4191.79,4061.03,3865.64,4336.41,4138.97,4551.79,4541.03,4280.51,3912.82,4214.36,4590.26,4394.36,4585.13,1692,1709,6.614,0,0,0,0,
85,4015.9,4180,4060,3858.97,4337.95,4133.85,4541.03,4535.38,4280.51,3914.87,4217.95,4590.77,4385.13,4581.54,1691,1710,6.622,0,0,0,0,
86,4018.46,4172.31,4061.03,3849.74,4337.95,4132.82,4540.51,4533.33,4277.95,3913.33,4211.28,4589.23,4374.87,4580.51,1692,1709,6.63,0,0,0,0,
87,4025.13,4183.59,4061.03,3850.26,4327.69,4144.1,4556.41,4537.44,4280,3913.33,4206.15,4588.72,4379.49,4578.46,1691,1709,6.638,0,0,0,0,
88,4014.36,4186.67,4059.49,3863.59,4330.26,4146.15,4553.85,4535.9,4281.03,3912.82,4202.56,4584.62,4381.54,4571.28,1691,1709,6.646,0,0,0,0,
89,4003.59,4171.28,4058.46,3863.08,4346.15,4134.87,4542.05,4532.31,4276.92,3910.26,4198.46,4580.51,4373.85,4572.31,1690,1710,6.653,0,0,0,0,
90,4005.64,4166.67,4054.87,3851.28,4343.08,4141.54,4550.26,4535.38,4276.92,3908.72,4198.46,4578.97,4374.87,4569.74,1691,1710,6.66,0,0,0,0,
91,4005.64,4171.79,4048.21,3857.95,4327.69,4153.33,4557.44,4537.95,4278.46,3907.69,4198.97,4571.79,4378.97,4555.38,1690,1710,6.668,0,0,0,0,
92,4004.62,4170.77,4048.72,3867.69,4335.9,4142.56,4551.28,4535.9,4276.92,3906.15,4197.95,4569.74,4371.28,4560,1690,1710,6.677,0,0,0,0,
93,4011.79,4171.28,4057.44,3862.56,4350.77,4132.31,4550.77,4536.92,4277.95,3909.23,4199.49,4581.03,4371.79,4577.95,1689,1709,6.684,0,0,0,0,
94,4017.95,4173.85,4062.56,3858.97,4349.23,4139.49,4557.95,4541.54,4283.08,3913.33,4202.56,4588.72,4381.54,4576.41,1689,1711,6.692,0,0,0,0,
95,4012.31,4169.74,4061.54,3860,4332.82,4140.51,4554.87,4540,4281.03,3911.28,4201.03,4585.13,4371.79,4565.13,1691,1710,6.7,0,0,0,0,
96,4007.69,4165.64,4058.97,3858.46,4328.72,4135.38,4550.26,4536.92,4276.41,3909.23,4198.46,4582.56,4365.13,4566.67,1690,1710,6.707,0,0,0,0,
97,4013.33,4174.36,4059.49,3862.05,4347.18,4142.05,4553.33,4537.95,4280,3910.26,4202.56,4585.13,4383.08,4572.82,1692,1709,6.715,0,0,0,0,
98,4023.59,4185.64,4067.69,3867.69,4347.18,4150.77,4556.92,4541.54,4288.21,3915.9,4205.13,4588.72,4393.85,4580,1691,1709,6.724,0,0,0,0,
99,4023.59,4181.03,4071.28,3860,4334.36,4153.85,4557.95,4542.56,4290.26,3922.56,4203.59,4589.74,4383.59,4584.62,1691,1709,6.732,0,0,0,0,
100,4012.82,4170.26,4062.05,3854.87,4343.08,4151.79,4555.38,4539.49,4287.69,3924.62,4206.67,4586.15,4376.41,4574.36,1692,1708,6.739,0,0,0,0,
101,4012.31,4169.74,4060,3860.51,4351.28,4152.82,4553.85,4540,4294.87,3925.64,4214.87,4589.74,4385.64,4572.31,1692,1708,6.747,0,0,0,0,
102,4022.05,4173.33,4066.15,3866.15,4343.08,4152.82,4554.87,4543.08,4298.97,3929.23,4219.49,4600.51,4397.44,4584.62,1691,1708,6.755,0,0,0,0,
103,4019.49,4173.85,4062.05,3870.77,4338.97,4141.54,4553.33,4541.03,4288.72,3928.21,4217.95,4599.49,4397.95,4587.69,1692,1710,6.763,0,0,0,0,
104,4015.9,4180.51,4058.46,3872.82,4343.08,4138.97,4550.26,4538.46,4285.13,3926.67,4216.41,4591.28,4392.31,4582.56,1692,1708,6.771,0,0,0,0,
105,4025.13,4189.23,4066.67,3869.74,4349.23,4148.21,4552.31,4540.51,4295.9,3931.79,4218.97,4596.92,4396.41,4588.21,1691,1709,6.779,0,0,0,0,
106,4031.28,4189.23,4068.21,3867.18,4351.28,4149.23,4555.9,4543.08,4296.92,3928.21,4221.03,4601.54,4402.05,4590.26,1691,1708,6.786,0,0,0,0,
107,4018.46,4176.92,4058.46,3861.54,4332.31,4137.95,4553.85,4537.95,4284.62,3912.82,4210.77,4588.72,4389.23,4578.97,1689,1710,6.794,0,0,0,0,
108,4004.1,4163.08,4055.38,3850.77,4318.46,4134.87,4551.28,4530.26,4274.36,3905.13,4195.38,4578.46,4371.28,4567.18,1691,1709,6.802,0,0,0,0,
109,4009.74,4168.72,4061.03,3854.87,4343.08,4144.62,4552.31,4531.79,4274.87,3913.85,4198.46,4583.59,4378.97,4565.64,1691,1709,6.81,0,0,0,0,
110,4022.56,4183.08,4066.67,3872.82,4362.56,4151.79,4553.85,4540,4285.13,3925.64,4212.82,4588.21,4395.9,4576.41,1691,1709,6.818,0,0,0,0,
111,4022.56,4185.64,4067.18,3873.33,4345.13,4156.41,4554.36,4540.51,4292.82,3928.21,4216.41,4585.13,4393.33,4585.64,1691,1709,6.825,0,0,0,0,
112,4014.36,4180,4062.56,3862.05,4333.85,4152.31,4554.87,4538.46,4289.23,3920,4211.79,4585.64,4384.1,4585.13,1692,1710,6.833,0,0,0,0,
113,4013.85,4173.85,4058.46,3858.97,4342.56,4141.03,4553.85,4540.51,4285.64,3912.82,4206.67,4585.13,4387.18,4583.59,1692,1710,6.841,0,0,0,0,
114,4019.49,4170.26,4058.46,3864.62,4345.13,4143.08,4552.82,4540.51,4285.64,3913.85,4204.1,4583.59,4392.31,4584.62,1692,1711,6.849,0,0,0,0,
115,4021.54,4171.28,4058.97,3865.13,4340.51,4152.82,4553.85,4538.46,4281.03,3913.85,4204.62,4584.62,4388.72,4584.62,1691,1710,6.857,0,0,0,0,
116,4018.97,4171.28,4060,3862.05,4342.05,4147.18,4552.82,4536.92,4276.92,3910.77,4203.59,4584.1,4382.05,4581.54,1691,1710,6.865,0,0,0,0,
