COUNTER,AF3,F7,F3, FC5, T7, P7, O1, O2,P8, T8, FC6, F4,F8, AF4,GYROX, GYROY, TIMESTAMP, FUNC_ID, FUNC_VALUE, MARKER, SYNC_SIGNAL,
45,4458.97,3927.18,4392.82,4116.41,4092.82,3601.54,4420,4470.26,4750.26,4568.72,4476.92,4321.54,4408.72,3760.51,1655,1694,0.204,0,0,0,0,
46,4456.41,3924.62,4389.74,4116.92,4093.85,3603.08,4416.41,4459.49,4745.13,4557.95,4460.51,4314.87,4390.77,3753.33,1655,1692,0.212,0,0,0,0,
47,4452.31,3924.62,4378.46,4113.33,4088.72,3604.1,4410.77,4456.92,4741.54,4549.23,4458.97,4308.21,4384.62,3752.31,1655,1694,0.22,0,0,0,0,
48,4461.03,3938.46,4386.15,4110.77,4094.36,3604.62,4413.33,4461.03,4748.72,4560.51,4467.18,4311.28,4394.87,3755.9,1655,1693,0.227,0,0,0,0,
49,4474.36,3946.15,4401.54,4119.49,4089.23,3603.59,4418.97,4463.08,4757.44,4572.31,4460.51,4312.31,4401.03,3750.26,1655,1693,0.235,0,0,0,0,
50,4475.38,3940,4394.36,4125.64,4086.15,3604.1,4415.9,4460,4751.28,4558.46,4454.36,4309.23,4389.74,3747.18,1656,1691,0.243,0,0,0,0,
51,4470.26,3942.05,4378.46,4123.59,4101.54,3603.08,4407.18,4449.23,4740.51,4533.33,4461.03,4308.72,4375.9,3748.72,1656,1690,0.251,0,0,0,0,
52,4472.82,3937.95,4381.03,4118.97,4106.15,3602.05,4406.15,4444.1,4736.41,4537.95,4456.41,4302.56,4378.46,3748.21,1656,1688,0.258,0,0,0,0,
53,4478.46,3921.03,4387.69,4109.74,4099.49,3605.13,4404.62,4443.59,4727.69,4548.72,4444.62,4297.44,4385.64,3745.64,1656,1688,0.267,0,0,0,0,
54,4471.28,3927.69,4376.41,4110.77,4092.82,3602.05,4395.9,4433.33,4709.23,4527.69,4442.56,4294.87,4375.9,3739.49,1655,1689,0.274,0,0,0,0,
55,4467.18,3946.67,4370.77,4116.92,4080.51,3589.74,4398.46,4435.9,4707.69,4520.51,4443.59,4292.31,4365.13,3734.36,1655,1691,0.282,0,0,0,0,
56,4480.51,3944.1,4387.69,4113.33,4077.95,3589.74,4413.33,4457.95,4737.44,4549.74,4445.64,4303.59,4381.54,3747.69,1655,1692,0.29,0,0,0,0,
57,4491.79,3938.46,4396.41,4111.79,4097.44,3603.08,4418.97,4466.15,4756.41,4566.15,4456.41,4318.46,4405.13,3761.54,1655,1693,0.298,0,0,0,0,
58,4491.79,3940,4384.62,4122.56,4101.03,3603.08,4413.85,4457.95,4746.15,4552.31,4468.21,4315.38,4400.51,3758.97,1654,1693,0.306,0,0,0,0,
59,4491.79,3944.62,4378.97,4125.13,4085.64,3591.28,4410.77,4455.38,4739.49,4543.59,4457.44,4307.69,4377.44,3758.97,1654,1694,0.314,0,0,0,0,
60,4490.77,3951.79,4384.62,4115.9,4087.18,3593.85,4409.74,4462.05,4750.26,4555.9,4451.79,4310.77,4380.51,3754.36,1654,1692,0.321,0,0,0,0,
61,4491.79,3953.33,4384.1,4122.05,4097.95,3605.13,4417.44,4475.38,4766.67,4574.36,4474.36,4315.9,4407.18,3747.18,1653,1692,0.329,0,0,0,0,
62,4507.69,3945.13,4382.56,4127.18,4094.36,3607.18,4428.21,4482.56,4771.28,4576.41,4478.97,4318.97,4409.74,3762.56,1655,1692,0.337,0,0,0,0,
63,4506.67,3932.82,4384.1,4108.72,4086.15,3602.05,4420.51,4469.23,4757.44,4557.44,4454.87,4312.31,4388.21,3770.26,1654,1690,0.345,0,0,0,0,
64,4481.03,3929.74,4375.38,4095.9,4095.38,3600,4410.77,4456.92,4740.51,4540,4446.67,4297.95,4380,3744.1,1656,1691,0.352,0,0,0,0,
65,4478.97,3939.49,4366.67,4110.77,4106.15,3605.13,4413.33,4458.46,4735.38,4538.46,4458.46,4300,4382.56,3738.46,1657,1689,0.36,0,0,0,0,
66,4496.41,3941.03,4371.79,4125.13,4096.41,3605.13,4413.85,4456.41,4735.38,4550.77,4457.95,4306.67,4380.51,3760,1656,1692,0.368,0,0,0,0,
67,4491.79,3935.9,4379.49,4118.46,4086.15,3595.9,4408.72,4450.26,4729.74,4555.9,4453.33,4299.49,4382.56,3749.74,1657,1692,0.376,0,0,0,0,
68,4491.28,3949.23,4385.64,4118.97,4090.77,3588.21,4410.26,4454.36,4732.31,4546.67,4456.92,4297.95,4388.21,3733.85,1657,1694,0.384,0,0,0,0,
69,4506.67,3964.62,4389.23,4128.72,4094.36,3589.74,4416.41,4462.56,4746.67,4550.77,4460,4311.28,4394.87,3752.82,1657,1694,0.392,0,0,0,0,
70,4502.56,3954.87,4385.64,4119.49,4094.36,3590.77,4412.82,4462.56,4752.82,4564.1,4461.54,4314.36,4398.97,3763.08,1655,1695,0.4,0,0,0,0,
71,4488.72,3943.59,4379.49,4107.69,4093.33,3587.18,4405.13,4455.38,4737.95,4557.44,4454.36,4305.13,4385.64,3751.79,1656,1694,0.407,0,0,0,0,
72,4490.77,3942.05,4381.54,4113.33,4085.13,3587.69,4406.67,4458.97,4735.38,4549.74,4456.41,4309.23,4380,3756.41,1653,1695,0.415,0,0,0,0,
73,4497.44,3943.59,4387.18,4121.03,4076.41,3588.21,4412.82,4470.26,4752.31,4558.46,4472.82,4320,4393.33,3764.1,1654,1694,0.423,0,0,0,0,
74,4502.05,3945.64,4389.74,4111.28,4080,3586.67,4414.87,4476.92,4755.38,4559.49,4476.41,4321.54,4399.49,3754.36,1652,1693,0.431,0,0,0,0,
75,4504.62,3941.54,4388.72,4103.59,4086.15,3587.18,4413.33,4474.87,4747.69,4551.28,4466.15,4317.44,4398.97,3751.28,1652,1694,0.439,0,0,0,0,
76,4503.59,3940,4384.1,4114.36,4091.28,3587.69,4411.28,4469.23,4748.72,4554.36,4458.97,4314.36,4398.46,3769.23,1653,1692,0.445,0,0,0,0,
77,4506.15,3956.41,4382.05,4125.13,4102.05,3589.23,4412.31,4469.23,4751.79,4558.46,4462.56,4313.85,4396.41,3774.87,1652,1693,0.453,0,0,0,0,
78,4509.23,3973.33,4382.56,4126.15,4108.72,3591.79,4415.9,4468.72,4747.18,4549.74,4463.59,4310.77,4393.33,3752.31,1654,1692,0.461,0,0,0,0,
79,4510.77,3963.08,4384.62,4122.56,4106.67,3591.79,4414.36,4462.05,4744.62,4553.33,4459.49,4310.77,4394.87,3751.79,1654,1693,0.47,0,0,0,0,
80,4517.44,3952.31,4388.21,4122.05,4110.26,3591.79,4412.31,4457.44,4747.69,4571.79,4463.59,4316.92,4404.62,3782.56,1654,1692,0.477,0,0,0,0,
81,4523.08,3970.77,4390.77,4123.08,4107.18,3592.82,4417.95,4463.08,4752.31,4574.87,4475.38,4322.56,4417.44,3786.67,1654,1694,0.485,0,0,0,0,
82,4521.03,3980.51,4388.72,4124.62,4094.87,3589.74,4416.92,4462.56,4750.77,4569.23,4474.87,4318.46,4416.41,3764.62,1655,1694,0.492,0,0,0,0,
83,4518.97,3961.03,4386.67,4123.59,4098.46,3587.69,4411.79,4458.46,4747.18,4564.62,4468.72,4314.87,4406.15,3765.13,1655,1694,0.5,0,0,0,0,
84,4524.1,3950.77,4394.36,4112.31,4109.74,3590.26,4416.92,4471.28,4755.9,4562.56,4482.56,4325.64,4413.85,3777.95,1655,1695,0.508,0,0,0,0,
85,4520.51,3955.38,4395.9,4103.08,4100.51,3589.23,4420,4478.97,4763.08,4570.26,4480.51,4327.69,4416.41,3774.36,1655,1693,0.517,0,0,0,0,
86,4507.18,3950.77,4383.08,4108.21,4087.69,3584.62,4413.33,4468.72,4755.38,4571.79,4457.44,4313.85,4400,3763.59,1655,1694,0.525,0,0,0,0,
87,4510.26,3948.21,4379.49,4118.46,4090.26,3586.15,4411.79,4459.49,4745.64,4553.85,4463.59,4313.85,4397.95,3771.79,1655,1690,0.531,0,0,0,0,
88,4521.03,3958.46,4392.82,4121.03,4093.85,3589.74,4415.9,4460.51,4748.21,4548.72,4476.41,4326.67,4406.15,3791.79,1655,1689,0.539,0,0,0,0,
89,4512.82,3962.05,4389.23,4117.95,4088.72,3588.72,4415.9,4463.08,4756.41,4557.44,4461.54,4316.92,4395.38,3778.46,1656,1686,0.547,0,0,0,0,
90,4499.49,3956.41,4373.33,4117.95,4089.23,3588.21,4412.31,4455.9,4742.05,4545.64,4451.28,4296.41,4383.08,3744.62,1654,1687,0.555,0,0,0,0,
91,4503.08,3952.82,4375.38,4112.82,4101.54,3590.26,4409.74,4442.56,4717.95,4529.74,4457.95,4293.85,4387.18,3743.59,1655,1689,0.563,0,0,0,0,
92,4509.23,3959.49,4382.05,4107.18,4108.72,3591.28,4408.72,4440.51,4719.49,4533.85,4446.15,4296.92,4382.56,3755.38,1654,1690,0.572,0,0,0,0,
93,4506.15,3970.77,4378.46,4118.97,4104.62,3592.82,4414.36,4454.36,4735.38,4543.08,4431.28,4297.95,4374.87,3753.85,1654,1691,0.578,0,0,0,0,
94,4508.21,3967.18,4384.1,4123.08,4104.1,3592.82,4421.03,4461.54,4736.92,4538.46,4447.69,4308.21,4386.67,3761.54,1654,1691,0.587,0,0,0,0,
95,4514.87,3964.62,4396.41,4108.72,4107.69,3588.72,4424.1,4458.97,4740,4533.85,4469.74,4321.03,4398.46,3775.38,1655,1694,0.595,0,0,0,0,
96,4513.33,3972.82,4393.33,4112.82,4109.23,3594.87,4426.15,4466.15,4751.79,4553.85,4466.67,4323.59,4397.95,3768.21,1655,1693,0.602,0,0,0,0,
97,4507.69,3976.41,4383.08,4125.64,4109.74,3602.56,4427.69,4474.36,4751.79,4573.85,4455.9,4319.49,4400,3761.54,1655,1694,0.611,0,0,0,0,
98,4508.72,3967.69,4383.59,4114.36,4110.77,3595.9,4427.18,4474.87,4750.26,4570.26,4459.49,4321.54,4403.59,3766.15,1656,1693,0.618,0,0,0,0,
99,4510.77,3956.92,4383.59,4108.72,4106.15,3592.82,4427.69,4473.85,4752.82,4563.08,4465.64,4325.64,4401.03,3773.85,1654,1694,0.626,0,0,0,0,
100,4508.72,3956.41,4378.97,4122.56,4100,3598.97,4428.72,4476.41,4752.31,4563.59,4467.69,4325.13,4394.36,3782.56,1657,1693,0.633,0,0,0,0,
101,4507.69,3962.05,4377.95,4118.46,4107.18,3600,4427.18,4476.41,4751.79,4555.9,4475.38,4323.59,4395.9,3777.95,1654,1692,0.642,0,0,0,0,
102,4508.21,3963.59,4380,4107.69,4118.97,3600,4427.69,4474.87,4753.33,4553.33,4473.85,4326.15,4406.67,3767.18,1655,1693,0.65,0,0,0,0,
103,4513.85,3966.67,4378.46,4115.9,4114.87,3603.59,4426.67,4474.36,4751.79,4560.51,4459.49,4327.69,4407.69,3771.28,1655,1690,0.657,0,0,0,0,
104,4522.56,3980,4379.49,4123.08,4103.08,3601.03,4424.1,4472.31,4749.74,4556.41,4455.38,4324.62,4399.49,3776.41,1655,1690,0.665,0,0,0,0,
105,4522.56,3990.26,4381.54,4124.62,4108.21,3597.95,4425.13,4466.15,4744.62,4551.28,4461.54,4324.1,4399.49,3776.92,1655,1689,0.672,0,0,0,0,
106,4522.56,3992.82,4377.44,4130.26,4121.54,3595.9,4424.62,4457.95,4734.87,4551.28,4465.13,4325.13,4401.54,3782.56,1655,1690,0.681,0,0,0,0,
107,4525.64,3987.69,4377.95,4120.51,4114.36,3588.21,4415.9,4455.38,4730.77,4543.59,4456.41,4319.49,4396.41,3781.54,1655,1690,0.689,0,0,0,0,
108,4524.62,3977.44,4381.03,4108.72,4097.44,3583.59,4409.74,4458.46,4731.79,4532.82,4447.69,4313.33,4395.38,3765.64,1656,1693,0.697,0,0,0,0,
109,4516.92,3981.03,4370.77,4121.54,4096.92,3585.13,4414.87,4457.95,4735.38,4536.41,4456.92,4317.95,4403.08,3766.67,1655,1694,0.703,0,0,0,0,
110,4513.85,3989.23,4365.13,4130.77,4110.26,3589.74,4425.13,4458.46,4745.13,4556.92,4472.82,4330.26,4410.26,3792.31,1655,1694,0.712,0,0,0,0,
111,4517.44,3986.15,4372.82,4120.51,4115.9,3592.82,4429.74,4467.69,4753.85,4571.79,4475.9,4335.38,4415.38,3795.9,1655,1693,0.719,0,0,0,0,
112,4521.03,3984.62,4373.33,4119.49,4112.82,3589.23,4423.59,4470.77,4751.28,4564.1,4468.72,4328.72,4409.74,3775.9,1656,1692,0.728,0,0,0,0,
113,4525.13,3992.82,4371.28,4129.23,4115.38,3588.21,4422.56,4463.59,4751.28,4555.9,4464.62,4326.15,4406.15,3779.49,1655,1691,0.736,0,0,0,0,
114,4523.59,3992.31,4377.44,4124.1,4120.51,3591.28,4427.18,4461.03,4754.87,4557.95,4461.03,4323.59,4411.28,3787.69,1656,1691,0.744,0,0,0,0,
115,4511.28,3977.44,4372.31,4113.33,4113.85,3590.26,4421.03,4460.51,4746.67,4548.72,4458.46,4314.87,4402.05,3766.67,1654,1690,0.751,0,0,0,0,
116,4502.56,3970.77,4362.56,4115.9,4097.95,3585.64,4411.79,4450.26,4733.85,4535.38,4458.46,4307.18,4389.74,3754.87,1654,1691,0.759,0,0,0,0,
117,4505.13,3975.9,4366.15,4117.44,4095.38,3585.64,4412.82,4443.59,4729.23,4533.33,4456.92,4310.26,4394.36,3769.23,1655,1689,0.767,0,0,0,0,
118,4505.64,3977.44,4367.69,4114.87,4102.56,3588.72,4419.49,4450.77,4731.79,4535.9,4457.95,4311.28,4398.46,3769.74,1654,1690,0.775,0,0,0,0,
119,4502.05,3974.36,4361.54,4115.9,4100,3588.21,4421.54,4457.95,4733.33,4535.38,4458.97,4308.21,4388.21,3762.05,1655,1689,0.783,0,0,0,0,
120,4507.18,3985.64,4362.56,4111.79,4101.54,3586.67,4421.03,4457.95,4732.82,4533.33,4459.49,4309.23,4388.21,3768.72,1655,1689,0.791,0,0,0,0,
121,4510.26,3995.9,4366.15,4106.67,4118.46,3586.67,4421.03,4456.92,4738.97,4542.05,4459.49,4310.26,4398.46,3774.36,1656,1691,0.798,0,0,0,0,
122,4506.15,3995.9,4365.13,4120.51,4131.28,3590.77,4426.67,4465.64,4754.36,4557.44,4455.9,4309.23,4402.05,3768.72,1656,1691,0.806,0,0,0,0,
123,4509.23,3996.92,4364.62,4132.82,4126.15,3593.85,4434.36,4475.9,4766.67,4560,4460.51,4312.82,4406.15,3768.72,1656,1693,0.814,0,0,0,0,
124,4521.03,3997.44,4366.67,4124.62,4115.38,3590.77,4434.36,4477.44,4766.15,4554.36,4471.28,4322.05,4407.18,3783.59,1656,1694,0.822,0,0,0,0,
125,4522.56,3995.9,4369.23,4121.03,4112.31,3586.67,4430.77,4472.31,4761.54,4556.92,4475.38,4323.08,4399.49,3785.13,1657,1695,0.83,0,0,0,0,
126,4515.9,3998.97,4372.31,4130.26,4109.74,3587.18,4427.18,4463.59,4758.97,4555.38,4473.33,4317.44,4394.87,3773.33,1656,1693,0.836,0,0,0,0,
127,4517.95,4004.62,4372.82,4134.87,4103.59,3588.21,4422.56,4456.92,4750.77,4551.28,4472.31,4321.03,4402.05,3782.56,1655,1695,0.845,0,0,0,0,
128,4523.08,4004.62,4374.87,4134.87,4109.74,3589.23,4421.03,4454.36,4744.62,4555.38,4474.87,4326.67,4409.74,3795.38,1656,1693,0.853,0,0,0,0,
0,4522.05,4008.21,4382.56,4134.87,4117.44,3590.77,4426.67,4458.46,4757.95,4556.92,4477.44,4327.69,4412.82,3785.64,1654,1693,0.861,0,0,0,0,
1,4523.59,4013.85,4387.18,4137.44,4110.77,3587.69,4427.18,4461.03,4766.67,4558.97,4470.77,4327.18,4413.85,3779.49,1655,1691,0.869,0,0,0,0,
2,4522.56,4008.21,4381.03,4131.79,4112.82,3587.18,4419.49,4451.79,4750.26,4554.36,4460.51,4324.62,4409.23,3786.15,1653,1689,0.877,0,0,0,0,
3,4520,4003.59,4377.44,4126.15,4133.33,3595.9,4423.08,4448.21,4741.03,4542.05,4475.9,4326.15,4409.74,3784.62,1654,1689,0.884,0,0,0,0,
4,4524.1,4014.87,4385.64,4134.36,4136.92,3597.44,4428.21,4454.36,4748.21,4547.18,4491.79,4334.36,4412.82,3783.59,1654,1687,0.892,0,0,0,0,
5,4525.13,4024.62,4391.28,4145.64,4121.03,3586.67,4420,4453.85,4747.18,4553.85,4476.41,4333.33,4408.21,3796.92,1654,1689,0.9,0,0,0,0,
6,4523.59,4014.36,4386.67,4141.03,4123.08,3583.59,4418.46,4451.28,4744.1,4544.62,4461.54,4324.62,4405.13,3798.97,1654,1689,0.908,0,0,0,0,
7,4532.82,4006.15,4389.74,4123.08,4129.23,3589.23,4427.69,4458.46,4750.26,4547.18,4473.33,4326.67,4418.46,3790.26,1654,1691,0.916,0,0,0,0,
8,4540.51,4013.85,4398.97,4122.56,4112.82,3590.26,4429.23,4461.54,4752.82,4560.51,4486.67,4337.44,4431.28,3794.87,1654,1692,0.922,0,0,0,0,
9,4535.9,4025.64,4395.38,4143.59,4102.56,3588.72,4425.13,4457.44,4753.33,4555.38,4481.03,4340.51,4423.59,3803.08,1654,1694,0.931,0,0,0,0,
10,4537.44,4025.64,4391.28,4148.21,4118.46,3588.21,4427.69,4459.49,4756.41,4549.74,4472.82,4334.87,4414.87,3799.49,1655,1693,0.939,0,0,0,0,
11,4543.08,4021.03,4395.38,4134.36,4132.82,3588.72,4428.72,4456.41,4754.36,4557.44,4472.82,4331.28,4412.31,3795.9,1653,1694,0.947,0,0,0,0,
12,4539.49,4025.64,4397.44,4135.38,4125.13,3590.26,4427.69,4449.74,4752.82,4557.44,4472.31,4333.33,4411.79,3798.97,1655,1695,0.955,0,0,0,0,
13,4534.87,4028.21,4396.41,4143.59,4117.95,3590.26,4428.21,4452.82,4754.36,4553.33,4477.44,4336.41,4420,3805.64,1654,1693,0.962,0,0,0,0,
14,4530.77,4020,4392.31,4135.9,4121.54,3589.74,4425.13,4457.44,4757.44,4556.41,4488.72,4334.87,4426.15,3809.74,1654,1693,0.97,0,0,0,0,
15,4523.59,4015.38,4382.56,4133.33,4122.05,3590.77,4422.05,4456.41,4763.59,4561.03,4484.62,4329.74,4417.95,3798.46,1655,1690,0.977,0,0,0,0,
16,4520,4019.49,4376.41,4138.46,4124.1,3589.23,4421.54,4456.92,4767.69,4561.03,4462.05,4324.1,4410.77,3782.56,1655,1690,0.986,0,0,0,0,
17,4523.59,4021.03,4383.08,4127.69,4129.74,3588.21,4425.13,4456.41,4759.49,4554.36,4457.95,4323.08,4410.26,3782.56,1656,1688,0.994,0,0,0,0,
18,4526.67,4018.46,4390.77,4121.54,4123.08,3589.23,4425.13,4447.18,4747.69,4549.23,4479.49,4325.64,4412.82,3794.36,1655,1689,1.002,0,0,0,0,
19,4522.56,4019.49,4386.15,4134.87,4111.79,3587.18,4420.51,4442.05,4751.28,4549.74,4490.77,4326.67,4422.05,3798.97,1656,1689,1.009,0,0,0,0,
20,4517.95,4020,4381.54,4137.95,4121.03,3587.69,4422.05,4450.26,4762.56,4555.9,4477.44,4324.1,4421.03,3798.46,1656,1690,1.017,0,0,0,0,
21,4519.49,4022.05,4387.18,4130.77,4125.64,3596.92,4432.31,4460.51,4770.26,4572.82,4466.15,4325.64,4412.31,3798.97,1656,1690,1.025,0,0,0,0,
22,4521.03,4022.05,4390.77,4134.87,4114.36,3607.69,4437.44,4462.56,4777.95,4585.64,4478.46,4333.85,4421.03,3799.49,1654,1691,1.033,0,0,0,0,
23,4523.59,4018.46,4386.15,4133.85,4120.51,3603.59,4432.31,4462.05,4781.54,4581.54,4489.74,4335.38,4434.87,3801.03,1656,1692,1.04,0,0,0,0,
24,4528.21,4018.97,4384.1,4125.13,4126.67,3588.72,4428.21,4462.56,4772.82,4562.05,4480.51,4328.72,4428.21,3803.08,1654,1692,1.049,0,0,0,0,
25,4518.97,4022.05,4382.56,4124.1,4111.79,3585.13,4427.69,4454.87,4761.54,4543.08,4471.28,4325.64,4407.69,3792.82,1654,1694,1.056,0,0,0,0,
26,4505.13,4013.85,4376.41,4124.62,4103.08,3586.67,4422.05,4447.69,4762.05,4548.21,4473.85,4324.1,4403.08,3781.54,1654,1693,1.064,0,0,0,0,
27,4504.1,3997.44,4373.85,4122.05,4103.08,3577.44,4420.51,4454.87,4768.21,4568.21,4479.49,4323.59,4420,3792.31,1653,1694,1.072,0,0,0,0,
28,4510.26,3992.31,4379.49,4112.82,4101.54,3574.36,4426.15,4456.92,4765.64,4567.18,4476.92,4327.69,4428.21,3807.18,1654,1693,1.08,0,0,0,0,
29,4507.18,3995.38,4384.62,4106.67,4105.64,3585.64,4427.18,4446.15,4763.59,4545.64,4464.62,4326.15,4416.41,3800.51,1654,1693,1.088,0,0,0,0,
30,4495.9,3992.82,4373.33,4116.92,4108.72,3589.23,4417.44,4441.03,4763.59,4535.9,4455.9,4311.28,4403.59,3779.49,1654,1691,1.096,0,0,0,0,
31,4484.62,3985.64,4355.9,4118.46,4106.67,3585.13,4408.72,4440,4753.33,4533.33,4457.95,4301.03,4393.33,3767.18,1655,1690,1.103,0,0,0,0,
32,4483.08,3985.13,4356.41,4109.23,4109.23,3588.21,4414.87,4441.03,4750.77,4533.33,4458.97,4306.15,4393.33,3778.46,1656,1690,1.111,0,0,0,0,
33,4496.92,3994.87,4372.82,4116.41,4108.72,3591.28,4430.26,4453.33,4774.36,4552.31,4463.59,4320.51,4413.85,3800.51,1656,1690,1.119,0,0,0,0,
34,4507.18,4004.62,4384.1,4126.67,4105.64,3589.74,4436.41,4462.56,4786.15,4575.38,4480,4333.85,4425.13,3809.23,1657,1692,1.127,0,0,0,0,
35,4506.15,4004.62,4383.08,4122.05,4108.21,3589.23,4430.77,4460,4768.72,4570.77,4482.56,4337.95,4412.31,3805.64,1656,1694,1.135,0,0,0,0,
36,4503.59,4000.51,4382.05,4118.46,4109.23,3587.69,4430.26,4457.44,4763.59,4555.38,4473.85,4332.82,4411.28,3801.03,1656,1694,1.142,0,0,0,0,
37,4504.62,4000,4380.51,4124.1,4108.72,3587.69,4432.31,4452.31,4774.36,4553.85,4476.41,4324.62,4425.13,3795.38,1655,1695,1.15,0,0,0,0,
38,4504.1,4001.54,4374.36,4119.49,4108.21,3587.18,4428.72,4444.62,4772.82,4548.72,4480.51,4317.95,4422.05,3787.69,1655,1693,1.158,0,0,0,0,
39,4504.62,4002.56,4376.92,4108.21,4106.67,3586.15,4427.69,4445.64,4772.31,4546.15,4473.33,4318.97,4405.13,3788.21,1653,1692,1.166,0,0,0,0,
40,4504.62,3996.92,4383.08,4110.26,4106.15,3587.69,4430.26,4447.69,4778.46,4554.87,4467.69,4321.03,4402.05,3795.9,1654,1691,1.174,0,0,0,0,
41,4496.92,3994.87,4376.41,4125.64,4107.69,3592.31,4432.31,4444.1,4773.85,4549.74,4475.38,4319.49,4408.72,3798.97,1652,1691,1.182,0,0,0,0,
42,4491.79,4003.08,4369.23,4125.13,4110.26,3592.82,4431.28,4442.56,4765.64,4541.03,4474.36,4318.46,4405.64,3792.31,1653,1692,1.189,0,0,0,0,
43,4490.26,4004.62,4372.31,4110.26,4110.26,3589.23,4428.21,4441.03,4765.13,4551.28,4461.54,4319.49,4405.13,3783.08,1652,1691,1.196,0,0,0,0,
44,4489.74,4000,4372.82,4113.33,4106.15,3590.26,4425.64,4440,4765.64,4554.36,4465.13,4317.95,4410.77,3786.67,1653,1692,1.205,0,0,0,0,
45,4491.79,4003.08,4371.28,4123.59,4106.67,3589.74,4422.05,4443.59,4763.59,4551.28,4471.28,4317.95,4409.74,3799.49,1654,1690,1.213,0,0,0,0,
46,4491.79,4006.15,4375.38,4118.46,4111.79,3578.46,4416.92,4440,4754.36,4550.77,4460.51,4318.97,4402.56,3795.9,1652,1692,1.221,0,0,0,0,
47,4493.85,4001.54,4379.49,4112.31,4108.72,3570.26,4418.46,4431.79,4749.23,4540.51,4460,4317.95,4402.05,3784.62,1654,1693,1.228,0,0,0,0,
48,4504.1,4005.13,4386.15,4118.97,4104.62,3579.49,4425.64,4436.92,4760.51,4544.1,4476.92,4326.15,4416.92,3795.9,1654,1694,1.236,0,0,0,0,
49,4509.74,4018.46,4389.23,4126.15,4116.92,3589.23,4428.21,4446.15,4766.67,4556.92,4482.05,4335.38,4427.18,3809.23,1655,1694,1.244,0,0,0,0,
50,4505.13,4021.54,4384.1,4124.62,4121.03,3587.18,4426.67,4445.64,4767.69,4548.72,4477.44,4332.31,4420.51,3801.03,1655,1695,1.252,0,0,0,0,
51,4504.62,4009.74,4383.59,4118.97,4112.82,3584.62,4427.69,4447.18,4778.97,4545.64,4475.9,4325.13,4412.82,3796.92,1655,1695,1.26,0,0,0,0,
52,4507.69,4005.13,4388.21,4119.49,4115.9,3588.21,4429.23,4451.28,4785.64,4567.18,4472.82,4326.15,4415.9,3802.05,1654,1693,1.268,0,0,0,0,
53,4508.72,4008.72,4389.23,4126.67,4116.92,3591.28,4429.23,4448.72,4779.49,4567.18,4471.79,4328.72,4416.92,3799.49,1655,1692,1.275,0,0,0,0,
54,4507.69,4005.13,4385.64,4126.15,4104.1,3590.26,4429.74,4445.13,4768.21,4543.08,4478.46,4325.13,4413.85,3797.95,1654,1690,1.283,0,0,0,0,
55,4508.21,4008.21,4383.08,4121.54,4105.13,3587.69,4428.72,4444.62,4766.15,4537.95,4490.77,4324.62,4415.9,3801.03,1654,1690,1.291,0,0,0,0,
56,4504.62,4010.77,4381.03,4123.59,4118.97,3588.72,4428.72,4445.64,4774.36,4554.87,4480.51,4326.67,4417.44,3803.59,1654,1687,1.299,0,0,0,0,
57,4497.44,3998.46,4383.59,4110.26,4120.51,3591.28,4430.77,4445.13,4776.41,4561.54,4458.46,4324.1,4412.31,3803.59,1652,1688,1.307,0,0,0,0,
58,4505.13,3996.92,4388.72,4100.51,4115.9,3590.77,4427.69,4440,4762.05,4538.46,4466.15,4321.54,4408.21,3800,1654,1688,1.313,0,0,0,0,
59,4521.54,4020.51,4387.69,4128.72,4113.85,3587.18,4423.08,4439.49,4759.49,4527.18,4484.1,4325.64,4410.77,3802.05,1653,1689,1.321,0,0,0,0,
60,4526.15,4030.77,4389.23,4145.13,4113.85,3587.69,4425.13,4445.13,4772.31,4547.69,4476.92,4329.23,4415.9,3809.23,1654,1690,1.33,0,0,0,0,
61,4522.05,4021.03,4393.33,4129.23,4108.72,3591.79,4429.74,4446.15,4772.31,4553.33,4469.23,4326.15,4414.36,3808.21,1654,1691,1.337,0,0,0,0,
62,4521.03,4021.03,4391.28,4130.77,4091.28,3584.1,4425.64,4437.44,4762.05,4533.85,4474.87,4321.03,4405.13,3794.36,1655,1692,1.346,0,0,0,0,
63,4522.05,4030.26,4390.77,4138.46,4092.31,3571.79,4417.95,4430.26,4760,4529.74,4473.85,4321.03,4396.41,3795.38,1655,1692,1.353,0,0,0,0,
64,4522.56,4031.28,4396.92,4129.74,4121.03,3577.95,4420.51,4434.87,4763.08,4538.97,4469.23,4325.13,4398.46,3813.85,1656,1692,1.36,0,0,0,0,
65,4521.03,4025.13,4397.95,4129.74,4123.08,3589.74,4428.72,4442.05,4770.77,4542.05,4471.28,4325.13,4407.18,3811.28,1655,1690,1.368,0,0,0,0,
66,4521.03,4020.51,4395.9,4132.82,4097.95,3587.18,4429.74,4443.08,4781.03,4553.85,4472.31,4325.64,4409.23,3800,1655,1692,1.376,0,0,0,0,
67,4526.15,4020,4401.03,4130.26,4097.95,3583.08,4430.77,4446.67,4782.05,4556.41,4475.38,4334.87,4415.38,3810.26,1655,1689,1.385,0,0,0,0,
68,4524.1,4026.15,4402.05,4136.41,4109.23,3588.21,4440,4456.92,4781.54,4542.56,4488.72,4341.54,4426.67,3821.03,1655,1690,1.392,0,0,0,0,
69,4522.56,4028.21,4401.54,4140,4102.05,3591.28,4445.64,4464.1,4795.9,4552.31,4497.44,4343.59,4430.77,3817.95,1656,1688,1.4,0,0,0,0,
70,4526.67,4020.51,4403.59,4135.9,4103.08,3590.26,4442.56,4465.64,4801.03,4574.36,4488.72,4344.62,4427.69,3815.9,1654,1688,1.407,0,0,0,0,
71,4523.08,4020,4400,4131.79,4115.9,3589.23,4440.51,4458.46,4780,4564.62,4481.54,4336.41,4422.05,3818.97,1655,1689,1.415,0,0,0,0,
72,4520,4024.1,4397.95,4129.74,4113.33,3588.72,4439.49,4446.15,4763.08,4540.51,4482.05,4326.67,4413.85,3815.9,1655,1689,1.424,0,0,0,0,
73,4519.49,4026.15,4397.95,4131.79,4103.59,3587.69,4435.9,4444.62,4765.64,4535.38,4478.46,4325.13,4409.23,3807.69,1654,1691,1.431,0,0,0,0,
74,4510.26,4020,4396.41,4127.18,4098.97,3585.64,4433.33,4447.69,4769.23,4539.49,4475.38,4326.15,4412.31,3798.46,1655,1691,1.44,0,0,0,0,
75,4504.62,4007.69,4396.92,4116.92,4095.9,3587.18,4436.41,4444.62,4765.64,4539.49,4476.92,4325.13,4409.23,3799.49,1655,1692,1.447,0,0,0,0,
76,4508.21,4006.67,4394.36,4121.54,4108.72,3590.77,4438.46,4442.05,4762.56,4535.9,4470.77,4319.49,4398.46,3801.03,1655,1692,1.455,0,0,0,0,
77,4504.62,4011.79,4386.67,4124.62,4123.08,3592.31,4432.31,4442.56,4768.21,4535.38,4466.67,4313.33,4397.95,3793.85,1655,1693,1.463,0,0,0,0,
78,4502.56,4011.28,4389.23,4121.54,4111.28,3592.82,4430.26,4446.67,4781.03,4548.72,4474.87,4322.05,4408.72,3804.1,1657,1692,1.471,0,0,0,0,
79,4513.33,4013.85,4398.97,4132.82,4098.46,3591.28,4438.97,4454.87,4787.18,4557.44,4483.08,4336.92,4418.46,3824.62,1655,1693,1.479,0,0,0,0,
80,4522.56,4025.13,4401.03,4136.41,4105.13,3589.23,4445.13,4460.51,4785.64,4549.23,4487.69,4337.44,4425.13,3822.05,1656,1693,1.486,0,0,0,0,
81,4520.51,4023.59,4398.46,4124.62,4108.21,3590.26,4442.05,4455.9,4782.05,4549.74,4488.72,4333.85,4427.18,3806.67,1655,1691,1.493,0,0,0,0,
82,4511.79,4008.72,4394.36,4121.03,4102.56,3591.79,4440.51,4453.33,4778.97,4564.62,4481.03,4331.28,4416.92,3802.05,1655,1689,1.502,0,0,0,0,
83,4502.05,4003.59,4388.72,4122.56,4104.1,3591.28,4443.08,4454.36,4778.97,4558.97,4471.28,4321.54,4402.05,3801.03,1654,1687,1.51,0,0,0,0,
84,4501.03,4015.38,4390.26,4125.64,4112.82,3593.33,4439.49,4451.79,4773.85,4537.44,4468.72,4317.44,4399.49,3795.9,1653,1688,1.518,0,0,0,0,
85,4506.67,4026.67,4393.85,4132.82,4107.18,3587.69,4432.31,4444.1,4756.92,4534.36,4472.31,4324.62,4407.69,3802.56,1654,1688,1.526,0,0,0,0,
86,4506.15,4013.85,4391.28,4127.69,4092.82,3573.33,4423.59,4435.9,4743.08,4538.46,4478.46,4322.56,4411.28,3808.21,1653,1689,1.533,0,0,0,0,
87,4501.03,4002.05,4385.64,4114.87,4097.95,3574.36,4418.97,4435.38,4749.23,4533.33,4470.26,4310.77,4404.62,3796.41,1653,1690,1.541,0,0,0,0,
88,4503.59,4016.41,4388.21,4118.46,4108.72,3587.69,4423.08,4441.03,4767.69,4532.82,4453.85,4310.77,4402.56,3795.38,1653,1692,1.549,0,0,0,0,
89,4509.74,4025.13,4396.41,4126.67,4101.03,3588.21,4429.23,4451.28,4782.56,4555.38,4461.03,4323.59,4412.82,3815.38,1654,1692,1.557,0,0,0,0,
90,4505.64,4011.79,4397.44,4121.54,4098.97,3583.59,4428.72,4459.49,4784.62,4571.79,4478.97,4327.69,4414.87,3820,1655,1692,1.565,0,0,0,0,
91,4502.56,4008.21,4394.36,4118.46,4104.1,3587.18,4427.18,4459.49,4781.54,4560,4478.97,4323.08,4415.38,3808.21,1656,1691,1.573,0,0,0,0,
92,4508.21,4020.51,4395.9,4130.26,4099.49,3588.72,4431.79,4458.97,4789.23,4552.31,4478.97,4322.56,4426.15,3811.28,1656,1691,1.58,0,0,0,0,
93,4508.21,4023.59,4396.41,4130.77,4104.1,3586.15,4431.28,4457.95,4792.82,4556.41,4491.79,4322.56,4428.72,3817.44,1656,1691,1.587,0,0,0,0,
94,4504.1,4016.41,4396.41,4113.33,4108.72,3587.18,4427.18,4457.95,4791.28,4558.97,4491.79,4323.08,4423.59,3812.31,1656,1691,1.596,0,0,0,0,
95,4506.15,4015.9,4398.97,4114.36,4102.56,3591.79,4432.31,4459.49,4792.31,4568.21,4478.97,4325.64,4426.15,3810.77,1656,1691,1.604,0,0,0,0,
96,4508.21,4026.67,4398.97,4135.38,4106.67,3593.85,4435.9,4455.38,4786.67,4564.62,4475.38,4326.67,4429.74,3819.49,1656,1692,1.612,0,0,0,0,
97,4509.23,4030.26,4396.41,4137.95,4104.62,3587.69,4431.79,4448.72,4777.44,4541.54,4478.97,4326.15,4424.62,3820.51,1656,1692,1.619,0,0,0,0,
98,4504.62,4020.51,4391.28,4125.13,4093.33,3586.67,4431.79,4451.79,4778.97,4537.44,4482.56,4326.67,4416.41,3807.69,1654,1692,1.627,0,0,0,0,
99,4495.38,4017.44,4383.59,4118.97,4104.62,3594.87,4433.33,4451.79,4782.05,4551.79,4481.03,4321.03,4410.77,3798.46,1655,1691,1.635,0,0,0,0,
100,4495.38,4024.62,4380,4119.49,4118.46,3595.38,4429.74,4444.1,4778.46,4553.85,4469.74,4310.77,4410.26,3801.54,1654,1691,1.643,0,0,0,0,
101,4505.13,4021.03,4381.54,4121.54,4101.03,3587.69,4429.23,4444.62,4779.49,4545.64,4463.08,4310.77,4408.72,3803.08,1654,1693,1.651,0,0,0,0,
102,4505.64,4011.28,4382.56,4121.54,4082.56,3584.1,4430.77,4447.18,4777.44,4546.15,4473.33,4317.44,4406.67,3801.03,1654,1692,1.657,0,0,0,0,
103,4497.95,4011.28,4383.59,4121.54,4086.67,3585.13,4427.69,4442.05,4769.23,4548.72,4476.92,4317.95,4409.74,3807.18,1653,1694,1.666,0,0,0,0,
104,4490.77,4009.74,4377.95,4117.95,4097.44,3586.67,4428.72,4441.03,4764.1,4541.54,4461.03,4308.72,4408.21,3806.15,1654,1693,1.673,0,0,0,0,
105,4485.64,4012.31,4370.77,4116.92,4100,3589.23,4433.85,4442.56,4766.15,4534.87,4454.87,4303.59,4398.46,3792.82,1654,1693,1.682,0,0,0,0,
106,4498.46,4017.44,4376.41,4120.51,4097.95,3589.74,4437.95,4442.05,4774.87,4537.44,4469.23,4311.79,4397.44,3797.95,1655,1691,1.69,0,0,0,0,
107,4507.18,4012.82,4388.21,4115.9,4098.46,3588.72,4442.05,4447.69,4780,4539.49,4480.51,4320.51,4406.15,3815.9,1654,1691,1.698,0,0,0,0,
108,4494.87,4009.23,4389.74,4114.87,4098.46,3587.18,4442.56,4457.95,4786.15,4545.13,4477.95,4321.03,4411.79,3815.9,1656,1690,1.732,0,0,0,0,
109,4494.87,4012.31,4382.56,4128.21,4102.05,3586.67,4440,4461.03,4794.36,4562.05,4469.23,4317.44,4411.79,3804.62,1653,1690,1.733,0,0,0,0,
110,4507.18,4015.9,4382.05,4129.74,4102.05,3590.26,4441.03,4448.72,4786.67,4561.03,4466.15,4317.95,4410.77,3805.64,1655,1690,1.733,0,0,0,0,
111,4512.82,4021.54,4392.31,4122.56,4098.97,3591.28,4443.08,4446.67,4775.9,4549.74,4481.54,4326.67,4418.97,3820,1653,1690,1.733,0,0,0,0,
112,4515.9,4029.23,4397.44,4133.33,4102.56,3587.18,4442.56,4460.51,4788.21,4563.59,4501.54,4337.44,4430.77,3828.72,1654,1692,1.738,0,0,0,0,
113,4517.44,4029.23,4390.77,4140.51,4104.1,3585.13,4442.05,4459.49,4793.33,4569.74,4502.05,4336.41,4430.77,3832.31,1654,1690,1.745,0,0,0,0,
114,4509.23,4024.62,4384.62,4127.69,4109.74,3586.67,4443.08,4452.31,4776.92,4559.49,4488.21,4330.26,4421.54,3831.79,1654,1693,1.751,0,0,0,0,
115,4505.13,4018.97,4381.54,4118.46,4121.54,3589.74,4443.59,4454.87,4774.36,4555.38,4477.44,4326.15,4417.44,3820,1655,1693,1.759,0,0,0,0,
116,4504.62,4014.87,4378.46,4120,4116.92,3588.72,4441.54,4447.18,4779.49,4543.59,4473.33,4319.49,4416.41,3809.23,1654,1695,1.767,0,0,0,0,
117,4496.92,4021.54,4381.03,4123.59,4101.03,3586.67,4440,4435.9,4778.46,4529.23,4474.87,4315.38,4412.82,3812.31,1655,1694,1.776,0,0,0,0,
118,4490.26,4024.62,4377.95,4124.62,4103.59,3586.67,4435.9,4441.03,4780,4545.13,4476.41,4317.95,4416.41,3818.97,1654,1695,1.783,0,0,0,0,
119,4489.23,4016.41,4371.28,4121.54,4106.67,3587.18,4431.79,4444.1,4779.49,4559.49,4478.97,4318.46,4425.13,3812.82,1654,1693,1.791,0,0,0,0,
120,4496.92,4013.85,4378.46,4120,4097.95,3588.21,4437.44,4444.1,4781.54,4548.72,4487.18,4321.03,4427.18,3811.79,1653,1692,1.798,0,0,0,0,
121,4500,4020.51,4384.62,4122.56,4102.05,3588.21,4445.64,4455.9,4797.44,4561.03,4493.85,4328.21,4427.18,3825.13,1654,1691,1.806,0,0,0,0,
122,4490.26,4019.49,4376.41,4121.54,4112.31,3589.23,4445.13,4463.59,4806.15,4582.56,4491.28,4328.21,4429.74,3827.69,1653,1689,1.814,0,0,0,0,
123,4489.23,4012.31,4375.9,4123.08,4110.26,3589.74,4443.59,4455.9,4791.28,4559.49,4489.74,4324.62,4424.62,3816.41,1654,1690,1.822,0,0,0,0,
124,4502.05,4021.03,4387.69,4136.41,4108.21,3588.21,4444.1,4445.64,4777.95,4532.31,4490.77,4326.67,4417.95,3816.41,1655,1689,1.83,0,0,0,0,
125,4509.74,4033.85,4391.28,4142.56,4109.23,3586.67,4441.03,4442.56,4781.54,4545.13,4484.1,4326.67,4417.44,3821.54,1655,1691,1.837,0,0,0,0,
126,4507.69,4034.36,4388.21,4136.92,4110.77,3587.18,4439.49,4444.1,4784.62,4556.92,4473.85,4321.03,4414.36,3816.41,1655,1692,1.845,0,0,0,0,
127,4513.85,4041.03,4390.77,4144.1,4117.44,3588.21,4441.54,4443.59,4780,4548.21,4471.79,4317.95,4405.64,3809.74,1655,1693,1.853,0,0,0,0,
128,4523.08,4062.56,4394.36,4156.92,4123.08,3587.69,4443.59,4442.05,4778.97,4532.82,4474.87,4317.95,4396.41,3805.64,1656,1694,1.861,0,0,0,0,
0,4515.38,4061.03,4387.69,4147.69,4125.64,3588.21,4441.54,4442.05,4780.51,4520,4469.23,4312.82,4387.69,3794.36,1655,1695,1.871,0,0,0,0,
1,4501.54,4039.49,4374.36,4128.72,4124.1,3588.72,4435.38,4439.49,4778.46,4526.15,4449.23,4298.97,4379.49,3783.08,1656,1695,1.876,0,0,0,0,
2,4501.54,4040.51,4373.85,4131.28,4112.31,3588.72,4435.38,4438.46,4778.46,4534.36,4441.03,4293.85,4380.51,3781.54,1655,1695,1.885,0,0,0,0,
3,4506.67,4044.62,4381.03,4141.03,4102.05,3587.69,4441.03,4441.03,4779.49,4523.08,4456.92,4298.46,4390.77,3785.13,1654,1695,1.893,0,0,0,0,
4,4505.64,4037.95,4380.51,4142.05,4107.69,3588.72,4441.54,4442.05,4780.51,4521.54,4464.1,4298.46,4390.26,3785.64,1653,1693,1.9,0,0,0,0,
5,4504.1,4042.05,4379.49,4144.1,4110.26,3588.72,4440.51,4443.08,4784.62,4540.51,4451.28,4296.92,4381.03,3783.08,1653,1693,1.908,0,0,0,0,
6,4505.13,4048.72,4382.56,4144.1,4108.21,3585.64,4442.56,4442.56,4782.56,4545.64,4451.28,4300,4388.21,3786.15,1653,1691,1.916,0,0,0,0,
7,4505.64,4045.64,4384.1,4139.49,4116.92,3584.62,4442.56,4440.51,4775.9,4534.87,4464.1,4308.21,4400.51,3797.44,1652,1692,1.923,0,0,0,0,
8,4508.72,4045.13,4385.13,4139.49,4122.05,3589.74,4441.54,4443.08,4780,4525.13,4463.59,4311.79,4396.41,3804.62,1652,1692,1.932,0,0,0,0,
9,4505.13,4043.08,4383.59,4144.1,4113.33,3591.79,4445.13,4446.15,4788.21,4526.67,4456.41,4306.67,4394.36,3799.49,1651,1692,1.94,0,0,0,0,
10,4493.85,4032.82,4375.9,4136.92,4101.54,3584.62,4442.05,4440,4777.44,4537.44,4454.87,4295.9,4397.95,3785.13,1652,1693,1.948,0,0,0,0,
11,4489.23,4034.87,4374.36,4136.41,4104.1,3587.69,4439.49,4435.38,4768.21,4534.36,4461.03,4295.38,4393.85,3781.54,1652,1694,1.956,0,0,0,0,
12,4494.36,4046.15,4380,4145.13,4122.05,3605.13,4452.31,4447.69,4790.26,4533.33,4465.13,4305.13,4395.9,3790.26,1653,1695,1.962,0,0,0,0,
13,4493.85,4035.38,4379.49,4130.26,4125.64,3607.18,4455.38,4450.26,4798.46,4544.62,4447.69,4298.97,4397.95,3789.23,1653,1694,1.971,0,0,0,0,
14,4486.67,4016.41,4368.72,4115.9,4115.9,3589.74,4437.44,4431.28,4774.36,4531.79,4426.67,4278.97,4384.62,3772.82,1655,1695,1.979,0,0,0,0,
15,4485.13,4020.51,4364.1,4131.28,4113.85,3585.13,4433.85,4428.21,4769.23,4514.87,4436.41,4278.46,4378.97,3769.74,1656,1694,1.986,0,0,0,0,
16,4495.9,4036.41,4375.38,4144.1,4108.21,3590.77,4446.67,4446.15,4787.18,4524.62,4459.49,4301.03,4393.33,3790.77,1658,1695,1.995,0,0,0,0,
17,4503.59,4040,4384.62,4133.85,4099.49,3580,4440,4444.62,4787.18,4530.77,4464.1,4313.85,4409.23,3807.18,1657,1695,2.002,0,0,0,0,
18,4497.44,4041.03,4382.56,4134.36,4101.03,3569.23,4426.15,4427.18,4775.9,4526.67,4459.49,4309.74,4407.69,3800.51,1657,1695,2.01,0,0,0,0,
19,4490.26,4045.64,4380.51,4145.64,4100.51,3580.51,4437.44,4429.74,4778.46,4538.97,4461.03,4306.67,4398.46,3788.72,1656,1695,2.017,0,0,0,0,
20,4492.31,4037.44,4382.05,4142.56,4095.38,3591.28,4448.21,4441.03,4784.1,4540.51,4460,4306.67,4393.85,3788.21,1656,1694,2.026,0,0,0,0,
21,4494.36,4025.64,4382.05,4138.46,4102.56,3580.51,4438.97,4432.82,4773.85,4524.1,4455.38,4305.13,4395.9,3789.23,1654,1694,2.033,0,0,0,0,
22,4492.82,4032.31,4382.05,4133.33,4109.74,3574.87,4436.92,4427.18,4767.18,4529.23,4460,4305.64,4402.05,3791.79,1654,1695,2.041,0,0,0,0,
23,4491.79,4039.49,4377.95,4127.18,4103.59,3585.64,4443.08,4433.85,4776.41,4538.46,4458.46,4305.13,4401.54,3796.41,1653,1695,2.05,0,0,0,0,
24,4491.79,4026.15,4373.85,4125.64,4096.92,3584.62,4438.97,4432.82,4773.85,4522.05,4447.69,4299.49,4397.44,3793.33,1653,1697,2.057,0,0,0,0,
25,4492.31,4017.95,4380.51,4122.56,4097.95,3571.79,4431.79,4429.23,4763.59,4514.87,4450.26,4294.36,4398.46,3791.79,1653,1696,2.065,0,0,0,0,
26,4492.31,4035.9,4385.13,4130.77,4104.1,3571.79,4433.33,4436.41,4773.85,4533.85,4462.56,4296.92,4408.21,3796.92,1652,1697,2.073,0,0,0,0,
27,4492.82,4050.77,4381.03,4145.64,4109.74,3578.97,4435.9,4440,4783.59,4543.08,4462.56,4302.56,4415.38,3798.97,1654,1696,2.081,0,0,0,0,
28,4498.97,4038.46,4381.54,4146.67,4108.72,3576.41,4433.85,4430.26,4770.26,4530.26,4451.79,4298.97,4408.21,3797.95,1653,1695,2.088,0,0,0,0,
29,4491.28,4022.05,4378.97,4133.33,4096.92,3571.79,4426.67,4415.9,4749.23,4507.18,4441.03,4283.08,4382.05,3781.54,1655,1696,2.096,0,0,0,0,
30,4474.87,4024.62,4367.69,4124.62,4092.31,3571.28,4425.13,4413.33,4746.67,4504.1,4435.9,4273.33,4367.69,3758.97,1655,1695,2.103,0,0,0,0,
31,4477.95,4031.28,4368.72,4125.64,4101.54,3574.87,4439.49,4431.79,4771.79,4534.36,4448.72,4289.23,4394.87,3780.51,1656,1695,2.111,0,0,0,0,
32,4491.28,4027.18,4373.33,4128.21,4110.77,3576.41,4445.13,4443.59,4783.59,4548.72,4464.62,4305.64,4427.69,3819.49,1656,1696,2.12,0,0,0,0,
33,4494.87,4021.03,4373.85,4126.67,4112.31,3573.33,4436.41,4436.92,4771.28,4541.54,4473.33,4308.72,4439.49,3824.1,1657,1696,2.127,0,0,0,0,
34,4487.18,4013.33,4378.46,4120.51,4096.41,3575.38,4443.08,4439.49,4771.28,4548.72,4487.18,4314.36,4449.23,3829.23,1657,1696,2.135,0,0,0,0,
35,4475.38,4002.56,4376.92,4124.62,4078.97,3585.13,4457.44,4454.87,4786.15,4558.97,4496.41,4323.08,4457.44,3852.31,1657,1698,2.142,0,0,0,0,
36,4476.92,4008.21,4372.82,4141.54,4090.26,3591.28,4455.9,4461.03,4789.74,4559.49,4494.87,4330.26,4464.62,3857.44,1657,1697,2.151,0,0,0,0,
37,4480.51,4005.13,4370.26,4141.03,4085.13,3582.05,4443.59,4445.13,4773.33,4553.33,4493.85,4323.08,4465.13,3837.95,1656,1699,2.158,0,0,0,0,
38,4468.21,3980.51,4361.54,4116.92,4047.69,3570.26,4436.92,4427.18,4758.97,4539.49,4490.77,4304.1,4447.18,3822.56,1656,1698,2.167,0,0,0,0,
39,4463.08,3979.49,4361.03,4097.44,4047.18,3574.36,4437.95,4432.31,4763.59,4534.36,4480,4301.54,4437.95,3824.1,1654,1698,2.175,0,0,0,0,
40,4465.13,4002.05,4367.18,4107.69,4076.41,3588.21,4443.08,4441.54,4770.26,4541.54,4473.85,4306.67,4445.13,3822.56,1655,1698,2.182,0,0,0,0,
41,4459.49,4001.54,4356.92,4131.79,4074.36,3594.87,4448.72,4436.41,4767.18,4543.08,4471.28,4297.44,4442.05,3814.36,1654,1697,2.19,0,0,0,0,
42,4470.77,3972.31,4356.92,4142.05,4057.44,3588.21,4451.79,4441.54,4777.95,4550.77,4474.36,4299.49,4445.13,3827.69,1654,1698,2.198,0,0,0,0,
43,4485.64,3958.46,4371.79,4133.85,4044.62,3576.41,4450.77,4455.38,4786.67,4562.56,4485.13,4316.41,4464.62,3841.03,1655,1698,2.206,0,0,0,0,
44,4469.23,3965.13,4363.08,4130.26,4022.05,3571.28,4446.67,4447.18,4769.23,4550.26,4483.59,4305.64,4458.97,3822.05,1656,1699,2.213,0,0,0,0,
45,4454.87,3976.92,4350.77,4142.05,4018.46,3580,4451.79,4438.46,4763.59,4543.59,4472.82,4292.31,4441.03,3809.74,1656,1698,2.221,0,0,0,0,
46,4462.05,3982.56,4358.46,4144.1,4040.51,3590.77,4462.05,4450.26,4772.82,4557.44,4474.36,4302.56,4445.64,3821.03,1656,1700,2.228,0,0,0,0,
47,4461.03,3971.28,4356.41,4136.92,4037.95,3590.77,4461.54,4451.28,4767.69,4549.23,4477.95,4303.59,4448.72,3824.62,1656,1698,2.236,0,0,0,0,
48,4456.92,3954.36,4346.67,4144.62,4017.95,3587.18,4457.44,4440,4763.08,4528.21,4472.82,4294.36,4438.97,3820.51,1656,1699,2.244,0,0,0,0,
49,4460,3951.79,4348.21,4154.36,4016.92,3588.21,4459.49,4446.15,4775.9,4542.56,4474.36,4294.87,4444.1,3816.92,1657,1698,2.253,0,0,0,0,
50,4460.51,3960,4353.33,4149.74,4026.15,3591.79,4463.59,4462.05,4787.18,4571.28,4478.46,4300.51,4458.97,3817.95,1656,1698,2.261,0,0,0,0,
51,4455.9,3958.46,4349.23,4146.67,4022.05,3590.26,4460.51,4458.46,4782.56,4566.67,4475.38,4302.05,4456.41,3826.67,1656,1698,2.267,0,0,0,0,
52,4458.46,3960.51,4350.77,4153.85,4018.97,3590.77,4458.97,4451.28,4780.51,4554.87,4480,4305.64,4455.9,3833.85,1657,1697,2.275,0,0,0,0,
53,4468.21,3965.64,4362.05,4149.74,4027.69,3591.28,4458.46,4456.41,4785.13,4565.13,4496.92,4312.31,4472.82,3831.79,1656,1697,2.283,0,0,0,0,
54,4472.82,3956.41,4364.1,4143.59,4027.69,3587.18,4456.92,4460,4786.67,4577.95,4508.21,4316.92,4480.51,3829.74,1657,1697,2.291,0,0,0,0,
55,4474.87,3959.49,4361.03,4155.38,4021.54,3585.64,4457.44,4457.44,4785.13,4578.97,4500,4321.03,4473.85,3838.97,1656,1699,2.3,0,0,0,0,
56,4472.31,3973.85,4363.08,4161.54,4020.51,3585.13,4453.33,4455.9,4782.56,4572.82,4489.23,4323.08,4471.28,3846.15,1656,1700,2.307,0,0,0,0,
57,4463.59,3965.13,4361.03,4149.23,4022.05,3575.9,4444.62,4457.44,4784.1,4568.21,4497.95,4322.05,4472.82,3839.49,1656,1702,2.315,0,0,0,0,
58,4457.95,3950.77,4357.44,4138.97,4021.03,3570.26,4442.05,4453.85,4785.64,4570.77,4506.67,4321.54,4472.31,3831.28,1657,1703,2.322,0,0,0,0,
59,4458.97,3965.13,4363.08,4145.64,4030.77,3573.85,4445.13,4446.15,4776.92,4572.31,4496.92,4325.13,4471.79,3833.33,1656,1706,2.33,0,0,0,0,
60,4467.18,3973.33,4367.69,4149.23,4046.67,3575.38,4445.64,4446.67,4768.21,4563.59,4487.69,4323.08,4467.69,3834.87,1659,1707,2.338,0,0,0,0,
61,4471.28,3958.46,4365.64,4144.62,4048.72,3572.82,4445.64,4450.26,4768.21,4560,4490.26,4316.41,4459.49,3828.21,1658,1709,2.346,0,0,0,0,
62,4466.15,3965.13,4364.62,4148.72,4045.13,3573.33,4445.13,4444.62,4766.15,4565.64,4491.79,4314.87,4462.05,3828.72,1660,1711,2.354,0,0,0,0,
63,4465.13,3983.08,4368.21,4154.36,4051.79,3573.85,4446.15,4447.18,4769.74,4570.26,4492.82,4322.05,4472.82,3833.85,1662,1711,2.361,0,0,0,0,
64,4473.85,3976.41,4375.38,4147.69,4060,3576.41,4453.33,4458.46,4781.03,4572.82,4495.9,4325.64,4476.41,3832.31,1661,1713,2.37,0,0,0,0,
65,4476.92,3976.41,4375.9,4145.13,4063.08,3577.44,4455.38,4454.87,4778.46,4568.72,4492.31,4322.56,4472.82,3833.33,1664,1713,2.378,0,0,0,0,
66,4478.97,4002.05,4373.85,4153.85,4063.59,3573.85,4447.69,4443.59,4766.15,4565.13,4495.38,4321.54,4472.31,3840.51,1663,1714,2.386,0,0,0,0,
67,4498.46,4022.56,4380.51,4155.38,4075.38,3572.82,4445.64,4445.13,4768.72,4568.72,4507.69,4326.15,4473.85,3845.64,1663,1715,2.393,0,0,0,0,
68,4524.1,4026.15,4386.67,4154.36,4087.69,3574.36,4446.15,4447.69,4772.31,4565.64,4506.15,4326.67,4476.41,3851.79,1663,1717,2.401,0,0,0,0,
69,4550.77,4037.44,4392.82,4164.62,4085.13,3572.82,4443.08,4439.49,4757.95,4551.28,4491.79,4321.54,4472.82,3865.64,1663,1718,2.408,0,0,0,0,
70,4584.62,4064.1,4404.1,4177.95,4083.59,3571.28,4441.03,4437.95,4751.79,4552.82,4487.69,4325.64,4466.15,3883.08,1662,1719,2.417,0,0,0,0,
71,4626.15,4084.1,4416.41,4186.67,4088.21,3572.82,4438.46,4441.54,4759.49,4556.92,4493.33,4335.9,4468.72,3898.97,1662,1718,2.425,0,0,0,0,
72,4658.97,4088.72,4426.67,4189.23,4096.41,3572.31,4430.26,4430.77,4752.31,4545.64,4493.85,4337.44,4477.44,3915.38,1662,1719,2.433,0,0,0,0,
73,4667.18,4093.85,4425.64,4187.69,4106.15,3571.28,4427.18,4412.31,4732.31,4540,4491.28,4334.36,4477.95,3931.79,1663,1716,2.44,0,0,0,0,
74,4667.18,4103.08,4415.38,4184.1,4109.74,3571.28,4428.21,4409.23,4730.77,4547.18,4488.21,4336.41,4474.87,3937.95,1663,1718,2.448,0,0,0,0,
75,4671.79,4103.08,4414.87,4184.1,4104.62,3569.23,4424.1,4411.79,4736.41,4540.51,4489.23,4334.87,4474.87,3930.77,1664,1718,2.456,0,0,0,0,
76,4674.36,4097.44,4419.49,4193.33,4106.67,3571.79,4418.97,4406.15,4730.77,4525.13,4492.82,4329.23,4475.38,3928.21,1663,1719,2.463,0,0,0,0,
77,4664.62,4079.49,4415.38,4179.49,4098.46,3572.31,4415.9,4404.62,4725.64,4527.18,4482.05,4325.13,4467.69,3927.18,1664,1719,2.472,0,0,0,0,
78,4652.31,4061.03,4410.26,4149.74,4068.21,3559.49,4414.87,4407.18,4728.72,4536.92,4470.26,4321.03,4460,3916.41,1663,1719,2.48,0,0,0,0,
79,4651.79,4074.36,4415.9,4168.72,4076.41,3556.41,4422.56,4415.9,4741.03,4542.05,4484.62,4327.69,4470.77,3916.41,1663,1719,2.486,0,0,0,0,
80,4643.08,4086.67,4417.44,4192.31,4117.95,3569.23,4432.82,4428.72,4751.79,4544.62,4492.82,4336.92,4480,3920,1662,1722,2.495,0,0,0,0,
81,4615.9,4058.97,4410.77,4143.59,4115.38,3572.82,4430.77,4430.26,4746.67,4542.56,4477.95,4329.23,4463.59,3901.54,1663,1725,2.503,0,0,0,0,
82,4592.82,4043.08,4402.56,4114.87,4089.74,3568.21,4424.62,4420,4734.36,4538.97,4482.56,4320.51,4452.82,3883.08,1663,1726,2.511,0,0,0,0,
83,4589.74,4058.97,4398.46,4169.23,4096.92,3567.69,4426.67,4418.46,4733.33,4537.95,4492.31,4325.64,4462.05,3877.95,1662,1729,2.518,0,0,0,0,
84,4585.64,4053.33,4398.46,4192.31,4108.21,3567.18,4429.23,4426.15,4743.59,4540,4477.95,4324.62,4462.56,3869.74,1664,1730,2.525,0,0,0,0,
85,4563.59,4031.28,4390.77,4155.38,4090.26,3566.67,4428.21,4427.69,4750.26,4542.56,4476.41,4313.33,4458.46,3857.95,1666,1729,2.533,0,0,0,0,
86,4539.49,4027.69,4375.9,4147.69,4082.56,3570.26,4427.18,4422.56,4747.18,4538.97,4490.77,4311.28,4460.51,3852.82,1667,1728,2.542,0,0,0,0,
87,4525.64,4019.49,4369.74,4154.36,4087.69,3570.77,4425.64,4413.33,4732.31,4525.64,4480.51,4305.13,4450.77,3848.72,1669,1726,2.55,0,0,0,0,
88,4516.41,4008.21,4370.77,4140.51,4085.64,3569.23,4427.18,4410.77,4733.85,4528.21,4467.18,4295.38,4441.54,3838.46,1671,1724,2.558,0,0,0,0,
89,4511.28,4004.62,4370.77,4138.97,4085.64,3571.28,4430.26,4416.92,4750.77,4552.82,4472.82,4299.49,4446.67,3829.23,1672,1724,2.565,0,0,0,0,
90,4508.21,3989.23,4371.28,4140.51,4073.85,3574.36,4428.21,4414.36,4744.62,4558.46,4474.87,4301.54,4444.1,3828.21,1675,1726,2.572,0,0,0,0,
91,4504.62,3988.72,4371.28,4128.21,4061.54,3575.9,4426.67,4413.33,4733.33,4546.67,4480,4297.44,4443.08,3830.77,1675,1726,2.581,0,0,0,0,
92,4503.08,4000,4367.69,4124.1,4066.15,3571.28,4426.67,4422.56,4744.62,4547.69,4492.82,4304.62,4456.41,3831.28,1676,1728,2.588,0,0,0,0,
93,4501.54,3992.31,4368.21,4145.13,4076.92,3568.72,4429.23,4430.77,4755.9,4556.41,4499.49,4315.38,4464.1,3832.31,1677,1728,2.596,0,0,0,0,
94,4496.92,3994.36,4368.72,4169.74,4086.15,3571.28,4434.87,4431.28,4751.79,4559.49,4502.05,4313.85,4460.51,3830.26,1676,1730,2.605,0,0,0,0,
95,4485.64,4005.64,4361.54,4165.13,4089.23,3571.79,4433.85,4424.62,4747.69,4553.85,4504.62,4309.74,4459.49,3819.49,1677,1730,2.611,0,0,0,0,
96,4478.46,4000,4360,4152.31,4087.18,3571.79,4430.26,4420.51,4747.18,4543.59,4503.59,4310.26,4458.46,3815.38,1675,1732,2.62,0,0,0,0,
97,4485.13,3985.64,4370.77,4156.92,4076.41,3572.31,4433.85,4426.15,4748.21,4538.97,4504.62,4313.33,4458.97,3818.46,1676,1735,2.627,0,0,0,0,
98,4486.67,3970.26,4369.23,4153.85,4059.49,3572.31,4433.85,4427.69,4746.67,4542.56,4504.62,4312.82,4460,3813.85,1675,1736,2.636,0,0,0,0,
99,4477.95,3961.54,4357.44,4131.79,4050.77,3570.26,4426.15,4419.49,4742.05,4550.26,4501.54,4307.18,4458.46,3808.72,1675,1738,2.643,0,0,0,0,
100,4476.41,3984.62,4361.54,4131.79,4079.49,3570.77,4431.28,4425.13,4754.36,4566.67,4514.36,4314.36,4470.26,3820.51,1673,1739,2.652,0,0,0,0,
101,4483.08,3997.44,4369.23,4154.87,4105.13,3573.85,4436.92,4435.38,4762.56,4576.92,4532.82,4324.1,4480,3827.18,1675,1740,2.658,0,0,0,0,
102,4475.9,3962.56,4360.51,4136.92,4073.33,3571.28,4427.69,4422.56,4750.26,4557.95,4515.9,4309.74,4460,3813.33,1674,1740,2.666,0,0,0,0,
103,4462.05,3945.13,4354.36,4102.56,4052.82,3571.79,4423.08,4410.26,4743.59,4536.41,4490.26,4292.31,4439.49,3800.51,1675,1743,2.675,0,0,0,0,
104,4458.46,3972.31,4354.87,4121.54,4084.1,3581.54,4434.36,4419.49,4750.77,4541.03,4502.56,4297.95,4448.21,3798.97,1676,1742,2.682,0,0,0,0,
105,4457.95,3982.56,4350.26,4148.72,4097.95,3582.05,4442.56,4430.77,4760,4558.97,4525.64,4307.69,4461.54,3804.1,1675,1743,2.691,0,0,0,0,
106,4460,3963.59,4349.74,4134.36,4082.05,3575.38,4438.97,4429.23,4766.67,4567.69,4524.1,4309.23,4460,3814.36,1676,1743,2.698,0,0,0,0,
107,4459.49,3964.1,4353.33,4127.18,4087.69,3575.38,4434.87,4427.18,4766.15,4568.21,4519.49,4309.23,4460.51,3816.92,1673,1742,2.705,0,0,0,0,
108,4458.46,3975.9,4350.77,4136.41,4090.77,3573.85,4429.23,4428.21,4760.51,4567.69,4525.13,4305.13,4464.1,3806.15,1672,1739,2.713,0,0,0,0,
109,4456.92,3964.62,4350.77,4122.05,4069.74,3570.77,4425.64,4426.15,4762.05,4571.79,4522.05,4302.05,4464.62,3802.56,1670,1736,2.721,0,0,0,0,
110,4459.49,3963.59,4357.44,4121.54,4073.85,3573.85,4433.85,4433.33,4769.74,4584.62,4522.56,4311.79,4470.77,3815.9,1670,1733,2.73,0,0,0,0,
111,4463.08,3979.49,4356.41,4138.97,4091.79,3574.87,4438.97,4436.92,4767.18,4579.49,4532.82,4318.46,4476.41,3821.03,1668,1732,2.737,0,0,0,0,
112,4453.33,3971.28,4348.72,4126.67,4083.59,3569.74,4429.23,4422.05,4750.77,4557.95,4527.18,4306.15,4465.64,3806.67,1667,1729,2.745,0,0,0,0,
113,4443.08,3956.92,4349.23,4113.33,4082.56,3571.79,4424.62,4416.41,4745.64,4558.46,4517.44,4298.97,4457.95,3798.97,1666,1724,2.752,0,0,0,0,
114,4441.54,3957.95,4350.26,4111.79,4093.33,3575.9,4435.38,4425.13,4755.38,4564.62,4518.46,4300,4460.51,3802.56,1665,1720,2.76,0,0,0,0,
115,4447.69,3958.46,4343.08,4111.79,4092.31,3574.36,4442.05,4422.56,4749.23,4548.21,4517.44,4294.87,4457.44,3797.95,1665,1716,2.768,0,0,0,0,
116,4456.41,3966.67,4344.62,4124.62,4099.49,3578.97,4440,4417.44,4741.03,4547.69,4517.44,4296.92,4461.54,3800,1664,1716,2.777,0,0,0,0,
117,4461.54,3983.08,4355.9,4140,4115.38,3587.69,4442.05,4428.21,4758.46,4574.87,4531.79,4310.26,4477.95,3815.9,1665,1714,2.785,0,0,0,0,
118,4456.41,3977.95,4353.33,4125.64,4104.62,3585.64,4448.72,4436.41,4768.21,4579.49,4536.92,4314.87,4480.51,3814.36,1664,1714,2.792,0,0,0,0,
119,4442.05,3956.92,4336.41,4093.33,4085.13,3574.36,4445.64,4423.08,4750.26,4556.92,4522.05,4298.46,4462.56,3791.28,1664,1715,2.799,0,0,0,0,
120,4437.95,3957.44,4333.33,4097.95,4095.9,3570.26,4442.56,4413.33,4741.54,4550.26,4515.9,4291.28,4453.85,3787.18,1664,1716,2.807,0,0,0,0,
121,4447.69,3975.9,4345.13,4122.05,4112.82,3580.51,4456.41,4425.13,4755.38,4568.72,4524.1,4306.67,4467.69,3801.54,1664,1718,2.815,0,0,0,0,
122,4451.79,3974.36,4346.67,4118.46,4106.67,3586.15,4461.54,4428.21,4755.9,4573.33,4525.64,4309.74,4473.85,3804.1,1663,1718,2.824,0,0,0,0,
123,4445.13,3958.97,4338.97,4100.51,4098.46,3579.49,4446.15,4411.79,4742.56,4553.33,4520.51,4295.38,4462.05,3795.38,1663,1718,2.831,0,0,0,0,
124,4444.62,3963.59,4340.51,4103.08,4106.15,3571.79,4440,4408.72,4742.56,4549.23,4528.72,4298.46,4457.44,3796.92,1663,1717,2.838,0,0,0,0,
125,4448.21,3971.28,4345.13,4110.77,4105.13,3571.79,4447.69,4418.97,4748.21,4553.33,4534.87,4309.23,4463.08,3802.56,1662,1716,2.846,0,0,0,0,
126,4444.62,3960.51,4340.51,4101.54,4094.87,3573.33,4446.67,4414.36,4749.23,4547.18,4531.28,4304.62,4461.03,3794.36,1661,1713,2.854,0,0,0,0,
127,4443.59,3955.9,4338.97,4095.38,4099.49,3574.87,4445.64,4410.26,4747.18,4551.79,4537.44,4300,4459.49,3786.15,1662,1713,2.862,0,0,0,0,
128,4440,3963.08,4337.95,4092.82,4102.56,3575.38,4446.15,4409.23,4733.33,4549.23,4539.49,4297.44,4458.97,3783.59,1661,1711,2.87,0,0,0,0,
0,4439.49,3970.77,4341.54,4097.95,4106.67,3575.38,4447.69,4408.72,4727.69,4535.9,4538.46,4298.97,4458.46,3791.28,1661,1711,2.877,0,0,0,0,
1,4453.33,3974.36,4352.31,4106.67,4117.44,3583.08,4456.41,4421.03,4750.77,4552.82,4554.36,4312.31,4468.21,3802.56,1661,1711,2.885,0,0,0,0,
2,4453.33,3965.64,4349.23,4091.28,4115.38,3584.1,4457.44,4423.59,4760.51,4570.77,4553.33,4307.18,4466.67,3795.9,1662,1711,2.893,0,0,0,0,
3,4442.56,3962.56,4340.51,4083.59,4114.36,3582.05,4453.33,4415.9,4745.64,4555.9,4533.85,4296.92,4457.44,3786.67,1663,1709,2.901,0,0,0,0,
4,4453.33,3977.44,4347.18,4105.64,4125.64,3586.67,4461.03,4424.1,4753.85,4551.79,4543.59,4311.79,4465.13,3798.97,1663,1710,2.909,0,0,0,0,
5,4466.67,3976.41,4354.36,4116.41,4114.87,3582.56,4461.54,4433.33,4768.21,4563.08,4556.92,4318.97,4472.82,3805.64,1664,1708,2.917,0,0,0,0,
6,4460.51,3962.56,4351.28,4101.03,4092.82,3570.77,4450.26,4425.13,4761.03,4556.92,4551.28,4308.72,4467.69,3795.38,1664,1708,2.925,0,0,0,0,
7,4460.51,3974.36,4355.38,4097.95,4107.18,3570.26,4451.28,4424.1,4754.36,4553.33,4558.46,4316.92,4474.36,3801.03,1665,1707,2.932,0,0,0,0,
8,4463.59,3988.72,4355.9,4102.05,4129.23,3580,4460.51,4432.31,4756.92,4564.1,4565.13,4325.13,4484.1,3810.26,1665,1708,2.94,0,0,0,0,
9,4449.23,3971.79,4341.54,4081.03,4114.87,3583.59,4453.85,4421.54,4750.26,4555.9,4550.77,4310.26,4471.28,3793.85,1664,1707,2.948,0,0,0,0,
10,4444.1,3959.49,4338.46,4073.85,4103.08,3576.41,4447.69,4407.69,4737.95,4534.36,4547.69,4302.56,4463.59,3783.59,1664,1705,2.956,0,0,0,0,
11,4455.38,3977.95,4348.72,4098.97,4121.03,3569.74,4453.85,4414.36,4741.03,4543.59,4562.56,4309.74,4477.44,3794.87,1663,1704,2.964,0,0,0,0,
12,4462.56,3993.33,4351.79,4109.23,4133.33,3579.49,4461.03,4429.23,4763.08,4574.36,4559.49,4313.33,4485.64,3804.62,1663,1703,2.971,0,0,0,0,
13,4463.08,3980.51,4350.26,4092.31,4122.05,3586.15,4462.05,4429.74,4771.28,4577.44,4541.03,4312.31,4477.44,3802.05,1661,1702,2.98,0,0,0,0,
14,4461.03,3970.77,4354.87,4084.62,4121.54,3576.41,4457.44,4424.62,4757.44,4558.46,4541.54,4312.82,4475.9,3801.03,1660,1702,2.987,0,0,0,0,
15,4457.44,3972.82,4358.97,4086.67,4126.15,3570.77,4449.23,4422.05,4747.69,4552.31,4554.36,4316.41,4480.51,3803.08,1659,1704,2.995,0,0,0,0,
16,4462.56,3972.82,4358.46,4087.18,4120,3571.28,4441.54,4416.41,4747.18,4552.82,4553.85,4321.54,4476.92,3802.05,1659,1703,3.003,0,0,0,0,
17,4473.33,3987.69,4359.49,4109.23,4137.44,3574.36,4443.08,4423.08,4752.31,4560.51,4552.82,4330.26,4482.56,3806.67,1658,1705,3.01,0,0,0,0,
18,4470.26,3992.82,4356.92,4112.82,4145.13,3575.38,4446.67,4429.23,4750.77,4560.51,4556.41,4328.72,4483.59,3806.67,1658,1705,3.018,0,0,0,0,
19,4451.79,3960.51,4347.69,4074.36,4103.08,3564.62,4441.03,4412.82,4729.74,4529.74,4543.59,4309.74,4459.49,3788.21,1656,1704,3.026,0,0,0,0,
20,4446.67,3951.28,4349.74,4063.08,4088.72,3555.9,4440.51,4408.72,4723.59,4523.08,4532.82,4303.59,4451.79,3779.49,1657,1705,3.034,0,0,0,0,
21,4460,3980,4362.56,4097.95,4128.72,3565.13,4452.82,4433.85,4755.38,4557.95,4543.08,4323.08,4475.9,3796.92,1657,1702,3.042,0,0,0,0,
22,4465.64,3984.62,4363.59,4113.33,4142.05,3572.31,4461.54,4441.03,4774.87,4569.74,4547.69,4327.18,4484.1,3804.1,1656,1703,3.049,0,0,0,0,
23,4456.41,3967.18,4355.9,4088.72,4122.05,3571.79,4456.41,4426.15,4759.49,4550.26,4544.62,4310.77,4471.28,3788.21,1656,1701,3.057,0,0,0,0,
24,4453.85,3969.74,4355.9,4082.05,4120.51,3572.31,4454.87,4427.18,4754.87,4551.28,4549.74,4314.36,4472.82,3781.03,1654,1701,3.066,0,0,0,0,
25,4459.49,3975.9,4356.92,4095.9,4126.15,3566.15,4460.51,4434.87,4766.67,4562.56,4554.36,4328.21,4479.49,3783.59,1654,1700,3.073,0,0,0,0,
26,4456.92,3967.69,4352.31,4093.85,4127.18,3560.51,4455.38,4431.79,4764.62,4563.59,4551.28,4323.08,4476.92,3779.49,1655,1700,3.081,0,0,0,0,
27,4450.77,3954.36,4345.64,4081.03,4126.15,3568.21,4443.08,4426.15,4749.74,4554.87,4543.59,4309.74,4474.36,3771.28,1655,1698,3.089,0,0,0,0,
28,4455.38,3944.62,4345.64,4073.85,4111.28,3573.33,4447.18,4422.56,4741.03,4538.46,4535.38,4307.69,4472.31,3765.13,1653,1697,3.096,0,0,0,0,
29,4465.64,3944.62,4356.92,4080,4105.13,3567.18,4457.95,4429.74,4753.85,4544.62,4538.46,4316.92,4471.28,3768.72,1655,1695,3.104,0,0,0,0,
30,4469.23,3959.49,4362.05,4095.38,4129.23,3566.67,4460,4444.62,4769.74,4567.69,4552.31,4329.23,4478.97,3784.62,1654,1691,3.112,0,0,0,0,
31,4462.56,3973.85,4353.85,4097.95,4149.23,3574.36,4466.15,4446.15,4764.1,4556.92,4553.33,4329.74,4482.05,3789.23,1654,1691,3.12,0,0,0,0,
32,4460.51,3969.23,4356.41,4087.18,4147.18,3578.46,4474.36,4439.49,4751.79,4527.69,4551.79,4325.13,4476.41,3778.46,1654,1689,3.128,0,0,0,0,
33,4469.74,3957.44,4368.21,4094.36,4137.44,3574.87,4463.59,4442.56,4762.05,4537.95,4561.54,4332.31,4482.56,3781.03,1654,1691,3.135,0,0,0,0,
34,4477.44,3959.49,4367.69,4107.18,4125.13,3568.21,4455.38,4448.72,4778.97,4568.21,4561.54,4341.03,4492.82,3796.41,1653,1691,3.143,0,0,0,0,
35,4476.92,3972.82,4367.69,4107.69,4127.18,3572.82,4467.69,4455.38,4781.03,4575.9,4561.54,4344.62,4496.41,3803.59,1653,1692,3.151,0,0,0,0,
36,4471.28,3975.9,4368.21,4106.67,4144.62,3575.38,4471.28,4457.95,4775.9,4570.26,4569.23,4341.54,4495.38,3794.87,1653,1692,3.159,0,0,0,0,
37,4461.54,3954.36,4361.03,4094.87,4142.56,3561.54,4458.46,4441.03,4763.08,4559.49,4564.62,4327.69,4484.62,3776.41,1653,1693,3.167,0,0,0,0,
38,4452.31,3936.92,4362.56,4074.87,4128.72,3557.95,4454.87,4426.15,4748.72,4549.74,4551.28,4315.38,4471.79,3764.62,1654,1693,3.175,0,0,0,0,
39,4452.31,3951.79,4363.08,4080.51,4138.97,3569.23,4460.51,4439.49,4757.44,4557.44,4555.38,4320.51,4474.87,3768.72,1654,1694,3.182,0,0,0,0,
40,4456.41,3962.56,4349.23,4095.9,4143.08,3567.69,4460.51,4444.62,4769.23,4558.97,4560.51,4321.54,4481.54,3772.31,1655,1695,3.19,0,0,0,0,
41,4457.95,3948.21,4349.23,4093.85,4121.54,3555.9,4455.9,4428.21,4761.03,4538.46,4553.85,4311.28,4473.85,3765.13,1655,1695,3.198,0,0,0,0,
42,4466.15,3958.97,4365.13,4096.41,4131.28,3555.38,4456.92,4429.74,4757.44,4537.95,4557.95,4318.46,4471.28,3769.74,1655,1696,3.206,0,0,0,0,
43,4475.38,3981.03,4367.69,4108.21,4155.38,3565.64,4460.51,4444.62,4766.15,4556.92,4566.15,4333.33,4481.03,3782.05,1656,1695,3.215,0,0,0,0,
44,4477.44,3971.28,4362.05,4114.87,4151.79,3571.28,4461.03,4446.15,4768.72,4558.97,4569.74,4335.38,4488.21,3786.15,1654,1697,3.221,0,0,0,0,
45,4475.9,3952.82,4365.64,4093.85,4132.31,3565.13,4458.46,4445.13,4768.72,4556.92,4572.31,4334.36,4484.62,3783.59,1655,1696,3.23,0,0,0,0,
46,4464.62,3945.64,4365.13,4062.05,4117.95,3552.82,4455.9,4441.03,4760.51,4551.79,4568.72,4330.77,4472.82,3775.38,1654,1695,3.237,0,0,0,0,
47,4455.9,3950.26,4356.92,4080,4123.59,3558.97,4457.44,4435.38,4752.82,4541.54,4569.23,4325.64,4474.87,3774.36,1654,1696,3.246,0,0,0,0,
48,4468.72,3958.97,4357.44,4112.31,4145.13,3571.28,4462.05,4442.05,4764.1,4552.31,4581.54,4331.28,4489.74,3784.1,1653,1696,3.253,0,0,0,0,
49,4478.46,3956.92,4370.26,4096.41,4149.23,3567.69,4462.56,4447.18,4771.79,4570.77,4588.72,4336.41,4493.33,3786.67,1654,1696,3.261,0,0,0,0,
50,4477.44,3961.54,4375.9,4095.38,4145.64,3567.18,4461.03,4450.26,4766.67,4571.79,4585.64,4336.41,4490.26,3787.69,1653,1696,3.268,0,0,0,0,
51,4485.64,3976.41,4370.26,4126.67,4156.41,3572.82,4464.1,4457.44,4770.77,4569.23,4586.15,4340,4492.31,3792.31,1653,1696,3.277,0,0,0,0,
52,4480.51,3962.56,4364.1,4097.95,4142.05,3564.1,4458.46,4448.21,4767.69,4557.95,4578.97,4329.74,4484.1,3778.46,1654,1695,3.285,0,0,0,0,
53,4455.9,3943.08,4358.46,4063.08,4120,3551.28,4445.13,4425.13,4747.69,4536.92,4563.08,4308.21,4461.03,3756.92,1655,1692,3.292,0,0,0,0,
54,4450.26,3954.36,4352.82,4095.9,4129.74,3562.05,4443.59,4421.54,4741.54,4530.26,4562.56,4305.64,4455.38,3758.46,1655,1692,3.301,0,0,0,0,
55,4467.69,3972.31,4360,4119.49,4145.64,3575.38,4458.97,4442.56,4761.03,4541.54,4583.59,4324.1,4478.46,3776.41,1655,1692,3.308,0,0,0,0,
56,4481.54,3972.31,4375.9,4102.56,4152.31,3566.15,4475.38,4460.51,4782.56,4561.03,4601.03,4341.03,4496.41,3789.23,1655,1693,3.316,0,0,0,0,
57,4488.21,3965.64,4382.56,4105.13,4155.9,3555.9,4475.38,4462.56,4781.03,4571.79,4595.38,4343.59,4490.26,3789.74,1655,1694,3.323,0,0,0,0,
58,4491.28,3965.13,4381.03,4109.74,4153.33,3561.54,4466.67,4457.95,4768.72,4564.1,4586.15,4343.08,4486.67,3786.15,1654,1695,3.331,0,0,0,0,
59,4486.15,3963.59,4382.56,4082.56,4142.05,3565.64,4463.08,4451.79,4763.59,4555.38,4587.69,4342.56,4489.23,3786.67,1654,1696,3.34,0,0,0,0,
60,4476.41,3952.31,4382.05,4076.41,4134.36,3555.9,4460,4441.54,4758.46,4554.36,4585.13,4335.9,4477.44,3785.13,1653,1695,3.347,0,0,0,0,
61,4478.46,3957.44,4380.51,4104.1,4146.15,3558.46,4461.03,4446.67,4764.1,4560.51,4584.62,4334.36,4476.41,3783.08,1653,1696,3.355,0,0,0,0,
62,4489.23,3979.49,4380.51,4103.59,4164.1,3571.28,4472.82,4464.1,4778.97,4569.23,4594.36,4343.08,4490.26,3787.69,1654,1694,3.362,0,0,0,0,
63,4484.1,3969.74,4375.9,4083.08,4152.82,3568.21,4475.38,4457.44,4774.87,4562.05,4592.31,4338.46,4485.13,3785.13,1653,1694,3.371,0,0,0,0,
64,4472.31,3943.59,4372.31,4083.08,4139.49,3558.46,4461.54,4440.51,4755.38,4544.1,4579.49,4321.54,4469.74,3774.36,1654,1693,3.378,0,0,0,0,
65,4473.85,3949.74,4371.79,4090.77,4150.77,3560.51,4458.46,4440,4752.31,4544.1,4572.82,4317.95,4468.72,3770.26,1654,1693,3.386,0,0,0,0,
66,4474.87,3964.1,4366.15,4090.26,4158.97,3560.51,4469.23,4445.13,4761.03,4548.72,4569.74,4323.08,4470.77,3771.79,1656,1690,3.394,0,0,0,0,
67,4472.82,3960,4365.13,4088.72,4162.05,3558.97,4473.85,4447.18,4767.69,4551.79,4572.31,4325.13,4473.33,3775.9,1656,1689,3.401,0,0,0,0,
68,4478.46,3958.46,4376.92,4090.26,4166.67,3567.69,4472.31,4454.87,4775.38,4574.87,4583.59,4331.79,4484.62,3781.54,1656,1689,3.41,0,0,0,0,
69,4490.26,3973.33,4388.72,4103.59,4166.67,3573.85,4481.54,4469.23,4783.08,4590.77,4592.31,4346.67,4493.85,3792.82,1656,1690,3.417,0,0,0,0,
70,4494.87,3978.97,4389.74,4106.67,4168.21,3573.85,4491.79,4473.33,4784.62,4575.9,4592.82,4353.85,4497.44,3801.54,1657,1691,3.426,0,0,0,0,
71,4484.62,3960,4384.62,4078.46,4157.95,3570.77,4482.56,4464.1,4773.33,4561.54,4586.15,4344.62,4488.72,3793.85,1655,1691,3.433,0,0,0,0,
72,4475.38,3951.28,4382.56,4074.87,4140,3566.67,4473.85,4458.97,4771.79,4570.77,4584.1,4340.51,4482.56,3783.59,1655,1693,3.441,0,0,0,0,
73,4477.95,3960.51,4386.15,4098.97,4150.77,3570.26,4478.97,4460.51,4778.46,4574.36,4582.56,4344.62,4485.64,3784.62,1655,1692,3.448,0,0,0,0,
74,4473.33,3962.56,4381.54,4096.41,4167.18,3573.33,4479.49,4457.95,4772.31,4564.1,4571.28,4337.44,4480.51,3783.08,1654,1694,3.456,0,0,0,0,
75,4475.38,3965.64,4377.95,4089.74,4170.26,3565.13,4475.9,4457.95,4766.15,4571.28,4569.23,4334.87,4478.46,3782.05,1655,1694,3.465,0,0,0,0,
76,4487.69,3967.69,4392.31,4094.87,4172.82,3558.46,4470.26,4454.87,4764.62,4576.41,4569.74,4342.56,4482.56,3786.15,1653,1693,3.472,0,0,0,0,
77,4481.54,3958.46,4395.38,4085.13,4155.38,3559.49,4465.64,4450.77,4762.56,4563.08,4561.03,4338.46,4475.38,3780.51,1655,1692,3.48,0,0,0,0,
78,4475.38,3957.44,4384.62,4077.95,4140,3558.46,4469.74,4458.46,4769.74,4560.51,4561.54,4335.9,4471.79,3780,1655,1689,3.488,0,0,0,0,
79,4487.18,3968.72,4386.67,4098.46,4162.56,3562.56,4478.46,4463.59,4783.59,4569.23,4571.28,4345.64,4488.21,3792.82,1655,1688,3.496,0,0,0,0,
80,4485.64,3966.15,4389.23,4110.77,4179.49,3570.26,4482.05,4464.1,4780.51,4564.62,4569.74,4345.13,4493.33,3792.31,1655,1689,3.503,0,0,0,0,
81,4473.33,3957.95,4382.56,4104.1,4168.21,3572.82,4481.54,4471.28,4775.38,4564.62,4566.67,4338.46,4486.15,3784.1,1655,1689,3.511,0,0,0,0,
82,4475.9,3959.49,4381.54,4096.92,4163.08,3571.28,4478.97,4470.77,4784.1,4578.46,4567.18,4336.92,4489.74,3786.67,1656,1691,3.52,0,0,0,0,
83,4476.41,3959.49,4379.49,4084.1,4160.51,3560.51,4474.87,4460.51,4777.44,4573.85,4559.49,4330.77,4482.56,3787.18,1656,1693,3.526,0,0,0,0,
84,4472.82,3966.15,4377.44,4087.18,4162.56,3556.41,4476.41,4461.54,4763.59,4564.62,4561.03,4329.23,4477.44,3785.13,1656,1693,3.535,0,0,0,0,
85,4475.38,3976.92,4384.1,4103.08,4175.9,3566.15,4477.44,4465.64,4769.23,4570.77,4570.26,4336.92,4488.21,3786.67,1655,1696,3.542,0,0,0,0,
86,4482.56,3975.38,4385.13,4100.51,4178.97,3566.15,4474.36,4459.49,4773.33,4573.85,4568.21,4334.87,4488.72,3785.64,1656,1696,3.55,0,0,0,0,
87,4489.74,3967.69,4383.59,4083.08,4169.74,3558.46,4475.9,4458.46,4767.69,4572.31,4566.67,4330.26,4480,3786.15,1653,1696,3.558,0,0,0,0,
88,4478.97,3955.38,4383.59,4069.74,4154.87,3555.9,4469.74,4457.95,4763.59,4568.72,4569.23,4328.21,4476.92,3782.05,1653,1696,3.566,0,0,0,0,
89,4463.08,3948.72,4376.92,4070.26,4148.21,3556.92,4461.54,4452.82,4764.62,4566.15,4567.69,4323.08,4475.9,3773.33,1653,1694,3.573,0,0,0,0,
90,4470.77,3953.33,4378.97,4084.1,4164.1,3567.18,4471.79,4460,4775.38,4573.33,4569.23,4325.64,4478.97,3783.59,1653,1694,3.581,0,0,0,0,
91,4480.51,3961.03,4384.1,4098.46,4178.97,3580,4486.67,4474.36,4785.13,4576.92,4574.36,4336.92,4489.74,3798.97,1653,1692,3.59,0,0,0,0,
92,4473.85,3961.54,4374.87,4094.36,4170.77,3574.36,4480,4468.21,4770.26,4565.64,4574.36,4337.44,4493.85,3790.77,1654,1692,3.597,0,0,0,0,
93,4471.28,3953.85,4372.82,4086.67,4167.18,3566.67,4471.28,4454.87,4758.97,4561.54,4570.26,4328.21,4484.1,3779.49,1655,1690,3.605,0,0,0,0,
94,4473.85,3956.41,4383.08,4087.18,4186.15,3572.82,4478.97,4462.05,4770.26,4573.33,4567.69,4327.18,4475.38,3783.59,1656,1690,3.612,0,0,0,0,
95,4473.33,3966.15,4383.59,4092.31,4188.21,3574.87,4481.03,4467.18,4767.18,4570.77,4565.64,4330.26,4474.87,3786.67,1657,1689,3.621,0,0,0,0,
96,4477.44,3966.67,4379.49,4100.51,4162.05,3568.72,4474.87,4459.49,4757.44,4558.46,4567.18,4328.21,4476.92,3784.1,1657,1691,3.628,0,0,0,0,
97,4481.54,3966.15,4383.08,4096.92,4152.82,3562.05,4474.87,4461.03,4767.18,4560,4569.23,4329.74,4475.38,3786.67,1659,1692,3.636,0,0,0,0,
98,4478.46,3972.31,4383.59,4094.36,4168.72,3560,4475.9,4462.56,4767.18,4561.54,4568.72,4329.74,4473.33,3787.69,1656,1692,3.645,0,0,0,0,
99,4476.41,3975.9,4381.54,4100.51,4172.82,3561.03,4474.36,4457.44,4751.28,4557.95,4568.21,4325.13,4475.9,3785.13,1658,1695,3.652,0,0,0,0,
100,4477.95,3973.33,4383.59,4092.31,4163.59,3558.46,4472.31,4455.9,4745.64,4555.38,4566.15,4323.59,4474.87,3783.59,1657,1693,3.66,0,0,0,0,
101,4476.92,3973.33,4386.15,4086.67,4169.74,3558.97,4473.33,4456.92,4748.72,4554.36,4568.21,4325.13,4472.31,3783.59,1656,1695,3.668,0,0,0,0,
