COUNTER,AF3,F7,F3, FC5, T7, P7, O1, O2,P8, T8, FC6, F4,F8, AF4,GYROX, GYROY, TIMESTAMP, FUNC_ID, FUNC_VALUE, MARKER, SYNC_SIGNAL,
56,4047.18,4124.1,4069.23,3882.05,4340,4156.92,4568.21,4541.03,4304.1,3923.59,4229.74,4600.51,4386.15,4649.74,1696,1732,0.12,0,0,0,0,
57,4052.31,4125.13,4065.64,3882.56,4346.15,4153.85,4569.23,4538.46,4296.41,3918.97,4222.05,4602.56,4380,4648.21,1697,1731,0.127,0,0,0,0,
58,4048.21,4120,4060,3875.9,4347.18,4140,4559.49,4540.51,4302.56,3910.77,4212.82,4597.95,4372.82,4645.64,1695,1731,0.135,0,0,0,0,
59,4040,4120,4059.49,3868.21,4348.72,4132.82,4551.28,4535.9,4305.13,3911.79,4218.46,4591.28,4374.36,4639.49,1696,1730,0.143,0,0,0,0,
60,4036.92,4116.92,4056.41,3872.82,4341.54,4138.46,4554.36,4525.13,4294.36,3911.79,4216.41,4585.64,4371.79,4633.85,1694,1728,0.151,0,0,0,0,
61,4034.36,4106.67,4052.31,3875.9,4336.41,4142.56,4557.95,4527.69,4292.82,3907.69,4201.54,4582.56,4362.56,4630.26,1694,1728,0.159,0,0,0,0,
62,4031.28,4105.64,4056.41,3866.15,4344.1,4139.49,4555.9,4538.46,4308.21,3909.74,4203.59,4583.59,4363.08,4628.21,1693,1726,0.167,0,0,0,0,
63,4033.85,4109.74,4060.51,3868.72,4339.49,4136.41,4557.95,4541.03,4316.41,3914.36,4217.44,4584.62,4373.33,4628.21,1692,1727,0.174,0,0,0,0,
64,4037.44,4112.31,4056.92,3876.41,4318.46,4141.54,4566.15,4536.92,4311.28,3914.87,4217.44,4587.69,4377.44,4633.33,1692,1726,0.182,0,0,0,0,
65,4031.28,4102.56,4053.33,3858.97,4305.64,4138.97,4561.03,4529.23,4292.82,3901.54,4204.1,4584.62,4365.13,4631.28,1692,1728,0.19,0,0,0,0,
66,4021.54,4086.67,4051.28,3847.18,4311.28,4125.64,4546.15,4514.36,4272.82,3887.18,4195.38,4569.74,4351.79,4614.36,1693,1728,0.199,0,0,0,0,
67,4027.18,4103.08,4051.79,3868.72,4332.82,4126.15,4547.69,4515.9,4280.51,3897.95,4202.56,4571.28,4362.05,4615.9,1694,1730,0.206,0,0,0,0,
68,4045.64,4140.51,4064.1,3890.26,4355.9,4143.08,4564.1,4534.87,4301.54,3913.85,4214.36,4589.74,4381.03,4642.56,1695,1731,0.214,0,0,0,0,
69,4053.33,4142.56,4077.95,3889.23,4355.9,4150.26,4571.79,4540.51,4305.13,3911.79,4220.51,4595.9,4381.03,4652.31,1695,1733,0.221,0,0,0,0,
70,4046.15,4120,4073.85,3879.49,4343.08,4143.08,4564.62,4532.31,4296.41,3909.23,4214.87,4588.21,4372.82,4635.38,1698,1732,0.229,0,0,0,0,
71,4041.54,4117.95,4058.46,3876.92,4338.97,4138.97,4555.38,4529.74,4294.36,3912.82,4205.13,4582.56,4369.74,4625.13,1699,1731,0.237,0,0,0,0,
72,4043.08,4125.64,4056.92,3878.97,4336.92,4141.54,4558.46,4534.87,4294.36,3909.23,4206.67,4582.05,4367.18,4631.28,1701,1731,0.245,0,0,0,0,
73,4048.21,4125.64,4068.21,3878.97,4336.41,4141.54,4567.18,4536.92,4295.9,3912.31,4217.95,4591.28,4370.77,4639.49,1702,1728,0.253,0,0,0,0,
74,4050.77,4121.54,4073.85,3877.44,4336.92,4134.87,4564.1,4534.36,4297.95,3918.97,4221.54,4598.97,4378.46,4638.97,1703,1728,0.26,0,0,0,0,
75,4052.82,4122.05,4074.87,3880.51,4333.33,4135.38,4562.56,4537.95,4301.54,3919.49,4215.38,4594.87,4381.54,4640.51,1704,1727,0.268,0,0,0,0,
76,4055.38,4123.08,4076.41,3880,4322.56,4142.56,4569.23,4536.92,4295.38,3913.33,4213.85,4588.72,4374.87,4642.05,1704,1727,0.276,0,0,0,0,
77,4051.28,4118.97,4074.36,3876.41,4316.41,4140,4569.74,4525.64,4283.08,3898.46,4213.85,4584.1,4365.13,4631.28,1705,1726,0.284,0,0,0,0,
78,4054.36,4125.64,4074.87,3885.13,4342.56,4140.51,4565.13,4526.67,4289.74,3901.03,4215.9,4587.69,4370.77,4632.82,1703,1723,0.292,0,0,0,0,
79,4069.74,4143.08,4081.54,3896.92,4365.13,4153.33,4572.31,4544.1,4310.77,3926.67,4221.03,4601.54,4387.18,4647.18,1704,1719,0.3,0,0,0,0,
80,4066.67,4142.56,4083.59,3898.97,4349.74,4161.54,4581.54,4549.74,4315.9,3931.79,4216.41,4603.08,4384.62,4642.56,1703,1716,0.307,0,0,0,0,
81,4050.26,4132.82,4076.41,3892.82,4340.51,4155.9,4576.92,4540,4306.67,3914.36,4208.72,4591.28,4369.74,4629.74,1702,1712,0.315,0,0,0,0,
82,4055.38,4133.85,4074.36,3884.1,4349.74,4145.13,4566.67,4537.44,4306.15,3909.74,4210.77,4591.79,4368.72,4635.38,1700,1712,0.323,0,0,0,0,
83,4066.15,4127.69,4078.46,3884.62,4337.44,4137.44,4563.59,4537.95,4305.13,3914.36,4216.41,4599.49,4378.46,4638.46,1701,1712,0.331,0,0,0,0,
84,4060,4119.49,4079.49,3890.77,4332.31,4142.05,4568.21,4537.95,4302.05,3917.95,4216.92,4601.03,4380.51,4631.79,1700,1713,0.339,0,0,0,0,
85,4055.38,4124.1,4076.92,3884.1,4343.08,4151.28,4571.28,4539.49,4306.67,3921.03,4215.9,4596.92,4376.92,4632.31,1698,1715,0.346,0,0,0,0,
86,4054.87,4123.08,4074.36,3872.82,4340.51,4151.79,4569.74,4536.92,4308.72,3915.38,4215.38,4591.28,4373.85,4630.77,1697,1717,0.354,0,0,0,0,
87,4056.92,4122.05,4075.9,3881.03,4350.26,4148.21,4570.77,4544.1,4310.77,3915.38,4217.44,4596.92,4382.05,4629.23,1696,1718,0.361,0,0,0,0,
88,4059.49,4127.18,4078.46,3888.21,4355.38,4149.74,4572.31,4552.31,4312.31,3918.97,4218.97,4604.62,4386.15,4632.82,1693,1720,0.37,0,0,0,0,
89,4053.85,4124.62,4073.85,3881.03,4338.97,4150.26,4572.82,4544.1,4311.79,3912.82,4216.92,4593.33,4374.87,4633.85,1693,1719,0.378,0,0,0,0,
90,4049.23,4120.51,4066.15,3875.9,4339.49,4151.28,4571.79,4534.36,4305.64,3907.18,4212.31,4585.13,4369.23,4633.33,1689,1720,0.386,0,0,0,0,
91,4049.74,4119.49,4066.15,3873.33,4358.97,4152.82,4570.77,4542.56,4306.67,3906.15,4211.79,4594.87,4371.79,4631.28,1689,1721,0.393,0,0,0,0,
92,4057.44,4122.56,4074.87,3876.41,4367.69,4152.82,4574.36,4553.85,4321.03,3910.26,4220,4599.49,4372.82,4628.21,1688,1718,0.401,0,0,0,0,
93,4070.77,4133.85,4083.59,3883.08,4374.87,4157.44,4583.59,4555.9,4326.15,3919.49,4228.72,4602.56,4379.49,4634.87,1686,1721,0.409,0,0,0,0,
94,4074.36,4140,4086.67,3883.08,4378.97,4160.51,4583.08,4555.9,4314.87,3917.95,4231.79,4609.23,4389.74,4647.69,1685,1721,0.417,0,0,0,0,
95,4065.64,4127.69,4081.03,3878.97,4357.44,4152.82,4571.79,4553.33,4308.72,3914.36,4230.26,4607.18,4386.67,4647.18,1684,1724,0.425,0,0,0,0,
96,4066.67,4115.9,4077.95,3878.97,4346.15,4147.69,4569.23,4551.79,4315.38,3924.1,4228.21,4604.62,4383.08,4640,1684,1725,0.432,0,0,0,0,
97,4079.49,4127.69,4089.74,3882.05,4366.15,4151.28,4573.85,4554.87,4318.97,3929.74,4236.41,4616.92,4395.9,4648.21,1683,1727,0.44,0,0,0,0,
98,4078.46,4137.95,4091.79,3881.54,4374.87,4152.82,4572.31,4553.85,4319.49,3923.59,4244.1,4621.03,4403.08,4656.41,1683,1728,0.448,0,0,0,0,
99,4068.72,4129.74,4079.49,3880,4363.08,4151.79,4571.79,4551.79,4319.49,3925.13,4238.46,4610.77,4396.41,4644.62,1682,1728,0.456,0,0,0,0,
100,4067.18,4122.05,4077.44,3881.03,4353.33,4154.36,4576.41,4550.77,4315.38,3926.67,4230.26,4606.15,4390.26,4632.82,1683,1729,0.464,0,0,0,0,
101,4061.54,4121.03,4079.49,3878.46,4352.82,4154.36,4574.87,4543.59,4311.28,3912.31,4223.59,4604.1,4383.59,4629.74,1682,1730,0.472,0,0,0,0,
102,4059.49,4120.51,4074.36,3876.92,4369.74,4151.79,4570.77,4541.03,4310.26,3911.79,4220,4602.56,4380.51,4631.28,1683,1731,0.479,0,0,0,0,
103,4070.77,4124.1,4078.46,3880,4383.59,4151.79,4573.33,4552.31,4310.26,3926.15,4228.21,4608.21,4389.23,4640,1684,1727,0.487,0,0,0,0,
104,4075.38,4123.59,4085.13,3878.46,4365.64,4153.33,4575.9,4554.36,4308.72,3922.56,4234.87,4608.21,4391.28,4643.08,1683,1727,0.495,0,0,0,0,
105,4063.59,4114.87,4079.49,3876.92,4351.28,4152.82,4572.31,4546.15,4310.26,3908.21,4228.21,4600,4381.03,4634.87,1685,1724,0.503,0,0,0,0,
106,4058.97,4115.38,4076.41,3878.46,4366.15,4151.28,4570.26,4547.18,4311.79,3913.85,4228.72,4601.03,4377.44,4632.82,1684,1723,0.511,0,0,0,0,
107,4070.77,4121.54,4081.54,3877.44,4371.28,4153.33,4574.36,4545.13,4307.18,3927.18,4234.36,4610.77,4385.64,4639.49,1685,1722,0.518,0,0,0,0,
108,4077.95,4123.08,4087.18,3875.38,4362.05,4155.9,4579.49,4543.59,4308.21,3926.67,4232.82,4613.85,4392.31,4642.05,1686,1720,0.526,0,0,0,0,
109,4076.92,4129.74,4089.74,3878.97,4358.46,4155.9,4578.46,4551.79,4319.49,3920,4231.79,4613.33,4393.85,4642.56,1686,1719,0.534,0,0,0,0,
110,4077.95,4133.33,4086.67,3877.44,4351.79,4153.33,4570.77,4547.18,4314.87,3910.26,4230.77,4610.26,4391.79,4646.15,1686,1719,0.542,0,0,0,0,
111,4096.92,4141.03,4090.77,3887.18,4362.05,4147.69,4569.74,4536.92,4303.08,3910.77,4232.82,4613.85,4395.38,4660,1688,1718,0.55,0,0,0,0,
112,4125.64,4160.51,4103.59,3905.64,4369.23,4142.56,4570.77,4541.54,4307.69,3917.95,4236.41,4625.13,4403.08,4687.69,1687,1718,0.558,0,0,0,0,
113,4147.69,4174.36,4108.72,3901.03,4345.13,4136.92,4560.51,4533.85,4301.54,3908.21,4228.21,4627.69,4397.95,4711.79,1687,1720,0.564,0,0,0,0,
114,4186.67,4194.87,4122.05,3902.56,4344.1,4137.44,4557.44,4518.46,4278.97,3897.95,4223.08,4633.85,4401.03,4745.13,1688,1719,0.573,0,0,0,0,
115,4249.23,4235.9,4150.26,3933.85,4367.18,4143.59,4567.69,4529.23,4281.03,3905.64,4234.36,4652.82,4418.46,4797.44,1687,1720,0.581,0,0,0,0,
116,4304.62,4271.79,4166.67,3949.74,4360.51,4140.51,4569.74,4540,4298.46,3913.85,4245.64,4673.85,4433.33,4848.72,1688,1718,0.589,0,0,0,0,
117,4334.36,4292.82,4174.36,3942.05,4351.79,4133.85,4566.15,4534.87,4296.92,3911.79,4252.82,4686.15,4447.69,4880.51,1686,1718,0.597,0,0,0,0,
118,4348.21,4303.08,4186.15,3944.62,4364.62,4138.46,4568.72,4536.41,4291.28,3910.77,4260,4691.28,4460.51,4898.46,1687,1716,0.604,0,0,0,0,
119,4353.33,4294.36,4188.72,3947.69,4352.31,4142.05,4572.31,4541.54,4296.92,3917.95,4264.1,4694.87,4460.51,4912.82,1685,1715,0.611,0,0,0,0,
120,4345.64,4281.54,4186.67,3936.92,4330.26,4134.87,4572.31,4540.51,4301.03,3924.1,4264.62,4701.54,4457.95,4914.36,1686,1714,0.62,0,0,0,0,
121,4338.46,4280,4188.72,3939.49,4343.59,4142.05,4573.85,4541.54,4305.64,3930.26,4269.23,4705.13,4466.15,4901.03,1686,1713,0.628,0,0,0,0,
122,4324.62,4273.33,4181.03,3945.64,4358.97,4153.33,4572.31,4543.08,4308.21,3929.23,4268.72,4693.33,4461.54,4885.64,1687,1711,0.635,0,0,0,0,
123,4294.87,4254.36,4168.72,3935.9,4357.95,4143.08,4569.23,4538.97,4300,3915.9,4257.95,4671.79,4445.13,4863.59,1687,1709,0.644,0,0,0,0,
124,4266.67,4230.26,4158.46,3924.1,4357.95,4140,4571.28,4538.97,4297.95,3912.31,4249.23,4663.08,4433.85,4829.23,1688,1708,0.651,0,0,0,0,
125,4248.72,4215.38,4146.15,3925.13,4371.28,4154.36,4572.31,4547.18,4309.74,3925.64,4246.15,4661.03,4428.21,4801.54,1689,1705,0.659,0,0,0,0,
126,4229.23,4213.85,4138.97,3928.21,4380,4156.92,4571.28,4554.87,4316.92,3932.82,4249.74,4654.87,4428.21,4787.18,1689,1704,0.667,0,0,0,0,
127,4204.62,4205.64,4136.92,3918.46,4369.23,4151.28,4577.95,4554.87,4311.79,3928.21,4248.21,4647.69,4427.18,4768.72,1690,1702,0.675,0,0,0,0,
128,4184.1,4184.62,4126.15,3907.18,4361.03,4156.41,4583.59,4549.23,4308.21,3925.13,4238.46,4639.49,4415.9,4748.21,1689,1701,0.683,0,0,0,0,
0,4168.21,4168.21,4115.9,3904.62,4365.64,4152.82,4580.51,4546.67,4309.23,3924.62,4235.38,4632.31,4406.15,4730.26,1690,1701,0.691,0,0,0,0,
1,4163.59,4170.26,4120.51,3908.72,4368.21,4152.82,4583.08,4552.82,4316.41,3933.85,4247.18,4637.95,4417.44,4718.46,1689,1698,0.698,0,0,0,0,
2,4166.15,4171.79,4126.67,3910.77,4365.64,4169.23,4591.28,4559.49,4325.64,3946.15,4254.36,4642.56,4428.21,4720.51,1688,1698,0.706,0,0,0,0,
3,4153.85,4155.9,4120.51,3903.08,4363.59,4167.18,4586.67,4555.38,4321.03,3941.54,4248.21,4634.36,4421.03,4719.49,1688,1697,0.714,0,0,0,0,
4,4139.49,4146.15,4112.31,3894.36,4364.1,4150.26,4581.03,4550.26,4315.38,3938.46,4246.15,4635.9,4417.44,4708.21,1688,1697,0.721,0,0,0,0,
5,4133.85,4153.33,4110.26,3890.77,4360.51,4155.9,4585.13,4554.36,4321.54,3940.51,4249.23,4643.08,4423.08,4700.51,1687,1696,0.729,0,0,0,0,
6,4126.15,4150.77,4108.72,3893.33,4353.33,4168.21,4585.64,4557.44,4325.13,3935.9,4247.18,4633.85,4416.92,4693.85,1686,1697,0.736,0,0,0,0,
7,4121.54,4139.49,4109.74,3897.95,4367.69,4163.08,4584.1,4556.92,4320,3937.95,4247.69,4630.26,4410.26,4688.21,1685,1697,0.744,0,0,0,0,
8,4123.08,4139.49,4115.38,3899.49,4388.72,4157.95,4586.67,4555.9,4315.9,3943.59,4249.23,4635.38,4413.85,4688.21,1685,1698,0.753,0,0,0,0,
9,4112.82,4137.44,4113.85,3896.41,4376.92,4154.87,4585.64,4552.82,4312.82,3933.33,4238.97,4629.74,4407.18,4681.54,1684,1698,0.761,0,0,0,0,
10,4101.54,4132.82,4107.69,3894.36,4365.13,4155.38,4584.62,4550.77,4313.33,3923.08,4233.85,4624.1,4396.92,4669.74,1685,1700,0.769,0,0,0,0,
11,4105.13,4132.82,4108.21,3896.41,4385.13,4166.15,4591.28,4555.9,4323.59,3929.23,4243.08,4630.26,4402.56,4672.31,1684,1700,0.776,0,0,0,0,
12,4103.08,4131.28,4106.15,3897.44,4398.46,4171.79,4595.38,4560,4330.77,3937.95,4242.05,4627.69,4404.62,4672.82,1685,1701,0.784,0,0,0,0,
13,4084.1,4119.49,4092.31,3888.21,4373.33,4169.23,4588.72,4555.38,4323.08,3939.49,4229.74,4607.69,4390.26,4647.69,1684,1701,0.792,0,0,0,0,
14,4072.31,4107.18,4081.54,3876.92,4357.95,4172.31,4583.08,4557.44,4324.62,3940,4229.74,4600.51,4385.64,4631.79,1685,1701,0.8,0,0,0,0,
15,4073.85,4109.74,4086.67,3880,4383.59,4173.85,4584.1,4571.28,4336.41,3943.08,4237.44,4613.33,4396.41,4648.21,1685,1700,0.808,0,0,0,0,
16,4073.33,4111.28,4091.28,3883.59,4400.51,4169.23,4583.08,4570.77,4332.31,3943.59,4235.38,4616.41,4397.44,4654.36,1683,1702,0.816,0,0,0,0,
17,4069.23,4106.67,4083.59,3877.44,4384.62,4171.79,4582.56,4556.92,4324.62,3941.03,4231.79,4609.74,4392.82,4637.44,1686,1701,0.824,0,0,0,0,
18,4075.38,4116.92,4084.62,3885.13,4382.56,4171.79,4585.13,4560,4332.31,3942.56,4236.41,4613.85,4398.46,4640.51,1684,1701,0.831,0,0,0,0,
19,4078.46,4124.1,4091.79,3889.74,4389.74,4168.21,4585.13,4570.26,4335.9,3942.56,4235.9,4619.49,4400,4652.31,1686,1702,0.839,0,0,0,0,
20,4068.21,4108.21,4087.18,3877.44,4374.36,4171.28,4585.64,4563.08,4328.21,3941.03,4229.74,4614.87,4391.28,4642.05,1685,1701,0.846,0,0,0,0,
21,4066.15,4102.05,4085.64,3882.56,4377.95,4171.79,4588.72,4554.87,4324.62,3945.13,4235.9,4616.41,4393.33,4635.9,1686,1702,0.854,0,0,0,0,
22,4067.18,4111.79,4089.23,3892.82,4396.41,4166.67,4587.69,4557.44,4317.95,3937.95,4242.56,4619.49,4396.92,4638.97,1687,1702,0.862,0,0,0,0,
23,4056.41,4107.69,4078.97,3882.56,4387.18,4168.72,4587.18,4556.92,4312.82,3927.69,4233.85,4609.23,4389.74,4635.38,1687,1704,0.87,0,0,0,0,
24,4050.77,4102.56,4071.79,3874.36,4381.03,4167.69,4584.62,4552.82,4315.38,3934.36,4230.26,4600,4388.21,4628.72,1688,1705,0.877,0,0,0,0,
25,4055.9,4104.1,4076.92,3878.97,4375.9,4156.92,4576.92,4551.28,4311.79,3935.9,4234.36,4602.05,4386.67,4623.08,1689,1708,0.885,0,0,0,0,
26,4053.33,4096.92,4071.79,3878.46,4353.85,4151.79,4574.87,4552.82,4305.64,3926.67,4225.13,4602.56,4375.9,4616.92,1691,1707,0.894,0,0,0,0,
27,4040,4088.21,4058.97,3874.36,4355.9,4153.85,4575.9,4548.72,4302.56,3923.59,4213.33,4596.92,4369.23,4616.92,1690,1708,0.902,0,0,0,0,
28,4036.41,4092.31,4058.97,3871.79,4377.95,4154.87,4571.79,4543.08,4299.49,3918.46,4214.87,4594.36,4371.79,4618.97,1693,1708,0.909,0,0,0,0,
29,4044.62,4098.97,4068.21,3873.85,4380,4152.31,4567.18,4547.18,4304.62,3915.9,4218.97,4599.49,4376.41,4617.44,1693,1708,0.916,0,0,0,0,
30,4048.21,4096.41,4071.79,3880,4380,4152.82,4571.28,4555.38,4312.31,3928.72,4219.49,4604.1,4376.92,4617.44,1693,1708,0.924,0,0,0,0,
31,4041.54,4085.64,4063.08,3871.79,4381.03,4161.03,4576.92,4554.36,4308.72,3925.64,4215.9,4595.9,4368.21,4610.77,1694,1706,0.932,0,0,0,0,
32,4033.33,4076.41,4054.36,3860.51,4369.74,4170.26,4577.44,4552.31,4307.18,3909.23,4212.82,4582.05,4359.49,4600,1694,1707,0.941,0,0,0,0,
33,4029.23,4076.41,4056.41,3861.03,4363.08,4166.15,4580.51,4556.41,4312.31,3915.38,4212.31,4583.08,4364.1,4600.51,1694,1706,0.949,0,0,0,0,
34,4032.82,4084.62,4058.46,3861.54,4365.13,4154.36,4584.1,4557.44,4312.82,3930.77,4215.38,4593.85,4374.87,4608.72,1693,1706,0.956,0,0,0,0,
35,4040,4090.26,4058.46,3864.62,4366.15,4152.31,4580.51,4555.38,4314.87,3936.41,4223.59,4600,4378.46,4618.46,1694,1705,0.964,0,0,0,0,
36,4041.54,4094.36,4067.69,3876.92,4368.72,4163.08,4580,4563.59,4321.54,3944.1,4234.87,4605.13,4385.13,4626.67,1693,1707,0.972,0,0,0,0,
37,4042.56,4096.41,4072.82,3882.56,4365.13,4167.69,4586.15,4569.74,4320.51,3946.15,4237.95,4608.21,4388.72,4625.13,1693,1707,0.979,0,0,0,0,
38,4043.08,4092.82,4067.18,3870.26,4364.62,4158.46,4579.49,4557.95,4309.74,3933.85,4229.23,4603.08,4380,4615.9,1691,1709,0.989,0,0,0,0,
39,4038.46,4091.28,4065.13,3858.46,4375.9,4154.36,4573.85,4549.74,4306.67,3926.67,4220.51,4602.05,4374.36,4618.97,1692,1709,1.006,0,0,0,0,
40,4035.9,4088.72,4069.74,3861.54,4369.74,4155.9,4578.97,4552.31,4304.62,3926.67,4216.41,4602.56,4373.33,4620,1690,1708,1.007,0,0,0,0,
41,4037.44,4080.51,4067.69,3866.67,4347.18,4153.85,4575.38,4542.05,4296.41,3923.08,4213.33,4598.97,4367.69,4606.67,1690,1707,1.011,0,0,0,0,
42,4034.87,4084.1,4066.67,3866.15,4353.33,4153.85,4571.79,4537.95,4300.51,3923.59,4215.9,4597.44,4367.18,4605.13,1690,1707,1.042,0,0,0,0,
43,4033.33,4089.23,4065.64,3863.59,4368.21,4157.44,4577.95,4551.28,4308.72,3918.46,4219.49,4594.36,4369.74,4612.31,1689,1709,1.071,0,0,0,0,
46,4036.41,4093.33,4069.23,3863.59,4377.44,4171.28,4583.59,4560.51,4322.05,3932.82,4221.54,4604.1,4372.82,4603.59,1690,1709,1.079,0,0,0,0,
47,4033.85,4088.72,4062.05,3864.62,4370.77,4164.62,4577.44,4556.92,4308.21,3927.69,4217.44,4595.9,4365.13,4605.64,1688,1710,1.087,0,0,0,0,
48,4032.82,4088.72,4058.97,3865.13,4371.79,4156.41,4576.41,4550.26,4293.85,3923.59,4212.31,4596.92,4364.62,4605.13,1689,1709,1.089,0,0,0,0,
49,4034.87,4093.33,4063.08,3867.18,4367.18,4154.36,4580,4554.36,4299.49,3928.72,4215.38,4603.08,4368.72,4607.18,1688,1710,1.096,0,0,0,0,
50,4035.38,4088.21,4061.03,3865.64,4348.21,4153.33,4574.36,4546.15,4297.95,3923.59,4213.85,4591.79,4363.59,4608.21,1689,1711,1.097,0,0,0,0,
51,4034.36,4091.28,4057.44,3864.62,4357.44,4152.31,4567.69,4537.95,4296.41,3922.56,4214.36,4588.72,4365.64,4613.33,1689,1710,1.121,0,0,0,0,
52,4035.38,4090.26,4063.08,3864.1,4356.41,4152.31,4570.77,4542.05,4299.49,3920.51,4215.9,4594.87,4365.13,4610.77,0,0,1.121,0,0,0,0,
53,4036.41,4089.23,4068.72,3863.59,4355.38,4152.82,4573.85,4546.67,4302.56,3917.95,4217.95,4601.54,4364.62,4608.21,1689,1712,1.121,0,0,0,0,
54,4028.21,4090.26,4061.03,3862.56,4347.18,4153.85,4574.36,4537.44,4298.97,3915.9,4214.36,4593.85,4358.97,4601.54,1688,1712,1.128,0,0,0,0,
55,4026.15,4102.05,4057.44,3864.62,4357.44,4156.41,4571.28,4537.95,4301.03,3923.59,4217.95,4597.44,4368.72,4600,1689,1711,1.134,0,0,0,0,
56,4032.31,4097.44,4061.54,3863.08,4347.69,4157.95,4573.85,4544.62,4300.51,3921.03,4217.95,4595.38,4368.21,4602.56,1688,1712,1.141,0,0,0,0,
57,4028.72,4085.13,4054.36,3862.05,4341.54,4152.82,4572.31,4537.95,4292.82,3903.59,4204.1,4582.05,4349.23,4598.46,1688,1711,1.142,0,0,0,0,
58,4016.41,4094.87,4046.67,3863.08,4356.92,4155.38,4570.26,4535.38,4291.28,3897.44,4198.46,4580,4347.18,4598.46,1688,1711,1.15,0,0,0,0,
59,4020.51,4108.72,4058.97,3861.03,4368.72,4162.56,4578.46,4550.26,4303.59,3916.41,4218.97,4593.85,4363.08,4606.15,1689,1711,1.151,0,0,0,0,
60,4039.49,4109.23,4072.31,3866.15,4367.69,4158.46,4584.1,4560.51,4315.9,3930.77,4234.36,4607.18,4370.26,4612.31,1688,1711,1.159,0,0,0,0,
61,4042.05,4106.67,4070.77,3871.28,4351.79,4151.28,4576.41,4549.23,4304.62,3918.46,4222.05,4607.69,4366.67,4606.67,1689,1710,1.169,0,0,0,0,
62,4030.77,4104.62,4065.13,3858.46,4332.82,4150.77,4569.23,4534.36,4289.74,3905.13,4208.72,4597.44,4360,4595.9,1689,1710,1.176,0,0,0,0,
63,4035.9,4105.64,4066.67,3862.05,4348.72,4152.82,4571.28,4540.51,4298.46,3911.79,4217.95,4596.92,4361.03,4605.13,1690,1710,1.183,0,0,0,0,
64,4049.74,4108.72,4071.28,3879.49,4366.67,4154.36,4573.33,4551.28,4307.18,3915.38,4225.64,4604.62,4368.72,4616.41,1689,1709,1.191,0,0,0,0,
65,4043.59,4112.82,4068.72,3871.79,4358.97,4157.44,4574.36,4548.21,4306.67,3911.28,4219.49,4604.1,4368.21,4605.64,1690,1709,1.199,0,0,0,0,
66,4029.74,4115.38,4060,3857.95,4361.03,4154.87,4572.82,4540.51,4303.08,3909.74,4211.28,4592.82,4358.46,4594.87,1690,1710,1.207,0,0,0,0,
67,4036.92,4112.31,4060,3865.13,4360.51,4152.82,4571.79,4539.49,4297.44,3909.74,4213.33,4587.69,4356.92,4602.05,1691,1709,1.215,0,0,0,0,
68,4037.44,4104.1,4064.62,3863.08,4336.41,4157.44,4576.41,4540,4292.82,3908.72,4215.38,4591.28,4355.38,4604.62,1690,1708,1.223,0,0,0,0,
69,4022.05,4102.05,4061.03,3856.41,4334.87,4154.36,4574.87,4541.03,4295.9,3907.69,4212.82,4593.85,4350.77,4598.97,1691,1709,1.231,0,0,0,0,
70,4030.77,4114.36,4062.56,3869.23,4366.67,4149.74,4571.28,4550.26,4306.67,3916.41,4221.54,4599.49,4361.54,4608.72,1690,1707,1.237,0,0,0,0,
71,4045.64,4123.59,4069.74,3873.85,4365.64,4154.87,4575.38,4554.36,4306.67,3922.56,4225.13,4601.03,4367.18,4613.33,1690,1709,1.246,0,0,0,0,
72,4036.41,4121.54,4068.72,3869.23,4338.97,4162.05,4583.08,4550.77,4297.44,3913.33,4213.85,4596.92,4358.46,4606.15,1691,1707,1.291,0,0,0,0,
73,4033.85,4123.08,4065.13,3870.26,4347.69,4156.41,4582.56,4552.31,4301.03,3908.72,4217.44,4603.08,4359.49,4609.74,1689,1708,1.292,0,0,0,0,
74,4046.15,4121.54,4066.67,3863.59,4360.51,4150.26,4577.95,4550.77,4309.74,3913.85,4226.15,4610.26,4369.74,4612.82,1691,1707,1.292,0,0,0,0,
75,4046.67,4112.31,4071.79,3853.85,4344.62,4159.49,4580.51,4544.62,4304.1,3913.33,4218.46,4600.51,4366.15,4600.51,1690,1708,1.292,0,0,0,0,
76,4043.59,4114.87,4074.87,3866.15,4349.74,4164.1,4582.05,4547.69,4304.62,3918.97,4220.51,4599.49,4364.62,4599.49,1691,1708,1.292,0,0,0,0,
77,4045.13,4127.69,4070.26,3878.97,4369.74,4152.82,4578.97,4554.87,4315.38,3930.77,4233.33,4610.26,4373.85,4614.87,1689,1709,1.295,0,0,0,0,
78,4042.56,4126.15,4067.18,3869.23,4361.03,4149.74,4583.59,4552.31,4312.31,3924.62,4224.1,4605.13,4375.38,4618.97,1690,1710,1.301,0,0,0,0,
79,4045.64,4122.56,4074.36,3862.05,4351.28,4158.46,4588.72,4543.08,4300.51,3911.79,4215.38,4596.41,4368.72,4616.92,1689,1711,1.309,0,0,0,0,
80,4044.62,4125.13,4071.28,3866.15,4355.9,4157.44,4576.92,4535.38,4293.85,3909.23,4218.97,4596.92,4358.46,4611.28,1690,1711,1.316,0,0,0,0,
81,4037.44,4122.56,4063.59,3864.1,4356.41,4152.31,4570.26,4535.9,4298.46,3909.74,4216.41,4598.46,4356.41,4603.08,1688,1711,1.324,0,0,0,0,
82,4037.44,4123.08,4070.77,3860.51,4354.87,4155.38,4582.05,4544.62,4307.18,3911.28,4214.36,4599.49,4365.64,4607.18,1689,1713,1.331,0,0,0,0,
83,4037.95,4127.18,4075.9,3870.77,4355.9,4155.9,4584.62,4546.15,4307.18,3913.33,4217.95,4602.05,4369.23,4611.28,1688,1711,1.34,0,0,0,0,
84,4035.38,4123.59,4068.21,3873.85,4358.46,4154.36,4580,4539.49,4301.03,3911.79,4216.41,4598.46,4359.49,4603.59,1687,1712,1.348,0,0,0,0,
85,4033.33,4118.46,4064.1,3857.44,4360,4158.46,4583.59,4538.46,4296.41,3910.26,4213.85,4593.33,4353.85,4600,1689,1710,1.355,0,0,0,0,
86,4029.23,4117.44,4065.13,3844.1,4355.9,4158.97,4579.49,4539.49,4292.82,3911.79,4213.33,4595.38,4355.38,4599.49,1687,1709,1.364,0,0,0,0,
87,4029.74,4117.95,4065.64,3848.21,4348.21,4153.33,4571.28,4538.46,4295.38,3912.82,4214.87,4599.49,4359.49,4598.97,1689,1709,1.37,0,0,0,0,
88,4039.49,4122.56,4065.13,3867.69,4351.28,4152.82,4577.95,4545.64,4307.69,3917.44,4222.05,4601.03,4363.59,4610.77,1689,1708,1.379,0,0,0,0,
89,4038.46,4127.69,4061.03,3878.46,4362.56,4156.92,4582.05,4554.87,4315.9,3925.13,4225.64,4602.05,4365.13,4621.03,1690,1708,1.386,0,0,0,0,
90,4035.38,4124.62,4062.56,3868.72,4364.1,4155.38,4579.49,4554.36,4313.85,3929.23,4221.54,4604.1,4368.72,4616.41,1690,1708,1.394,0,0,0,0,
91,4042.56,4121.54,4070.77,3860.51,4351.28,4151.79,4581.54,4549.23,4305.13,3924.62,4218.97,4602.05,4368.72,4612.82,1690,1710,1.401,0,0,0,0,
92,4044.62,4126.67,4071.28,3867.18,4348.21,4153.85,4579.49,4544.1,4296.92,3915.9,4220.51,4601.03,4363.59,4613.33,1692,1709,1.409,0,0,0,0,
93,4036.41,4130.77,4063.59,3868.72,4357.44,4154.87,4571.28,4540,4291.79,3911.28,4217.44,4599.49,4356.41,4601.54,1691,1711,1.417,0,0,0,0,
94,4029.74,4126.67,4061.03,3860,4354.87,4151.79,4569.74,4534.87,4285.13,3906.67,4206.67,4592.31,4348.21,4586.15,1692,1709,1.425,0,0,0,0,
95,4028.21,4117.95,4057.44,3858.97,4345.13,4150.77,4573.85,4533.33,4283.59,3901.54,4197.95,4584.1,4342.56,4587.18,1691,1710,1.434,0,0,0,0,
96,4035.9,4115.9,4059.49,3868.21,4351.28,4157.95,4580,4545.13,4297.95,3906.67,4206.67,4591.28,4347.69,4598.97,1693,1710,1.441,0,0,0,0,
97,4046.15,4129.74,4073.33,3872.82,4366.67,4162.56,4588.21,4560,4316.92,3925.64,4224.1,4608.72,4357.95,4611.79,1691,1710,1.449,0,0,0,0,
98,4041.03,4138.97,4076.41,3864.62,4363.59,4157.44,4584.62,4556.41,4314.36,3930.77,4223.59,4608.72,4358.97,4615.38,1691,1710,1.456,0,0,0,0,
99,4032.31,4128.21,4067.18,3860.51,4352.82,4154.36,4582.05,4550.26,4300.51,3916.92,4214.36,4599.49,4352.31,4606.15,1691,1710,1.465,0,0,0,0,
100,4034.87,4118.46,4066.67,3866.67,4354.87,4156.92,4584.62,4554.36,4301.03,3914.87,4215.38,4601.03,4349.23,4599.49,1690,1710,1.472,0,0,0,0,
101,4037.44,4123.08,4069.23,3862.56,4351.79,4155.9,4576.92,4546.67,4297.95,3918.46,4216.41,4603.08,4348.21,4602.56,1689,1710,1.48,0,0,0,0,
102,4034.87,4128.21,4064.62,3857.95,4349.74,4153.33,4569.23,4534.36,4290.26,3912.82,4213.33,4600.51,4351.79,4602.56,1689,1711,1.487,0,0,0,0,
103,4034.36,4126.15,4064.62,3867.18,4360.51,4152.31,4572.31,4538.97,4298.46,3909.23,4215.9,4602.56,4358.46,4600.51,1688,1711,1.496,0,0,0,0,
104,4036.41,4121.54,4064.62,3866.67,4354.36,4152.31,4573.85,4544.1,4305.64,3911.28,4216.92,4603.08,4355.38,4604.1,1688,1712,1.511,0,0,0,0,
105,4034.87,4121.54,4057.95,3855.9,4345.64,4157.95,4571.79,4538.97,4298.97,3913.85,4212.82,4598.97,4348.72,4603.08,1689,1710,1.513,0,0,0,0,
106,4038.97,4133.33,4062.05,3862.05,4367.18,4165.64,4574.36,4542.05,4301.54,3923.08,4222.56,4604.62,4358.46,4607.69,1685,1711,1.519,0,0,0,0,
107,4045.64,4141.03,4074.87,3865.13,4371.28,4168.72,4583.08,4555.9,4316.41,3935.38,4234.87,4614.36,4370.26,4620.51,1688,1711,1.527,0,0,0,0,
108,4042.05,4127.18,4075.38,3851.79,4340,4166.67,4585.13,4554.87,4314.87,3933.33,4224.62,4611.28,4362.56,4614.87,1687,1710,1.535,0,0,0,0,
109,4033.33,4114.87,4065.13,3853.85,4338.46,4158.97,4574.36,4539.49,4298.46,3921.03,4211.28,4600,4352.82,4598.46,1687,1711,1.542,0,0,0,0,
110,4032.82,4127.18,4063.59,3867.18,4368.21,4155.9,4570.26,4540.51,4301.03,3918.46,4216.92,4600.51,4355.9,4602.05,1688,1709,1.55,0,0,0,0,
111,4034.87,4141.03,4067.18,3866.67,4371.28,4161.03,4576.92,4548.21,4310.26,3924.62,4222.05,4606.67,4357.44,4608.21,1689,1709,1.558,0,0,0,0,
112,4029.74,4136.41,4063.59,3862.05,4359.49,4160,4574.87,4541.03,4300,3920,4213.85,4602.05,4351.79,4602.56,1689,1708,1.566,0,0,0,0,
113,4026.15,4133.33,4059.49,3865.64,4362.56,4153.85,4568.72,4532.82,4287.69,3908.72,4211.28,4594.36,4349.23,4603.59,1690,1708,1.575,0,0,0,0,
114,4026.67,4137.44,4064.1,3864.1,4357.95,4154.36,4569.23,4533.33,4286.15,3906.67,4213.85,4595.9,4347.18,4605.64,1691,1707,1.581,0,0,0,0,
115,4031.28,4135.9,4070.77,3861.03,4348.72,4156.41,4572.82,4538.46,4288.21,3910.77,4213.85,4600.51,4349.23,4601.03,1692,1708,1.589,0,0,0,0,
116,4040,4139.49,4072.31,3864.62,4358.46,4158.97,4578.46,4547.18,4297.95,3921.03,4216.41,4606.67,4358.46,4608.72,1692,1708,1.597,0,0,0,0,
117,4046.67,4153.85,4075.38,3872.82,4370.77,4164.62,4584.1,4555.9,4312.31,3931.28,4226.67,4611.79,4366.67,4617.44,1692,1709,1.606,0,0,0,0,
118,4050.77,4154.36,4081.54,3872.31,4363.08,4172.82,4586.67,4553.33,4312.31,3928.72,4232.82,4618.46,4366.67,4617.95,1691,1709,1.614,0,0,0,0,
119,4047.69,4140,4081.54,3864.1,4350.77,4170.26,4587.18,4547.18,4303.59,3923.59,4227.18,4619.49,4363.08,4619.49,1692,1710,1.62,0,0,0,0,
120,4038.46,4134.87,4075.38,3868.72,4352.82,4153.85,4581.54,4541.03,4295.9,3923.59,4215.9,4609.23,4357.44,4610.77,1691,1709,1.629,0,0,0,0,
121,4035.38,4139.49,4071.79,3876.41,4362.05,4152.82,4578.46,4538.97,4296.41,3922.56,4215.9,4604.62,4354.36,4602.56,1691,1710,1.636,0,0,0,0,
122,4044.1,4145.13,4073.33,3876.41,4367.69,4164.1,4585.13,4546.15,4307.69,3925.64,4226.67,4613.85,4361.03,4614.87,1692,1709,1.644,0,0,0,0,
123,4049.74,4151.79,4072.82,3878.97,4370.77,4166.67,4585.13,4547.69,4308.72,3932.31,4226.15,4614.36,4368.72,4623.08,1691,1710,1.652,0,0,0,0,
124,4046.15,4152.31,4068.21,3880,4369.74,4159.49,4572.82,4539.49,4295.9,3926.15,4215.38,4602.56,4365.64,4615.38,1692,1709,1.66,0,0,0,0,
125,4040,4145.64,4064.62,3875.9,4362.56,4155.38,4568.72,4534.36,4288.21,3915.9,4213.85,4598.46,4356.92,4614.87,1690,1710,1.667,0,0,0,0,
126,4034.87,4143.59,4062.05,3877.44,4370.26,4161.03,4577.44,4538.46,4294.36,3920.51,4220,4603.08,4357.95,4616.92,1692,1711,1.675,0,0,0,0,
127,4034.87,4143.08,4057.44,3874.87,4375.38,4170.77,4583.08,4541.54,4300,3928.21,4213.33,4600,4354.87,4608.72,1690,1710,1.683,0,0,0,0,
128,4033.85,4135.38,4049.23,3859.49,4350.77,4170.77,4579.49,4536.41,4294.87,3922.56,4203.59,4588.21,4341.54,4598.46,1691,1711,1.691,0,0,0,0,
0,4030.77,4133.33,4050.77,3857.95,4341.54,4166.67,4580,4541.54,4299.49,3919.49,4214.87,4588.72,4344.62,4598.97,1690,1711,1.699,0,0,0,0,
1,4040.51,4142.05,4059.49,3869.23,4364.1,4170.77,4586.15,4555.9,4314.87,3932.82,4230.26,4605.13,4367.69,4615.9,1690,1711,1.709,0,0,0,0,
2,4057.95,4151.79,4066.15,3879.49,4370.77,4168.72,4585.64,4557.95,4314.87,3942.56,4232.82,4612.82,4380,4634.36,1690,1710,1.714,0,0,0,0,
3,4066.15,4157.44,4070.26,3882.56,4361.03,4166.15,4583.59,4544.62,4305.64,3934.87,4232.31,4610.26,4376.41,4637.44,1690,1710,1.722,0,0,0,0,
4,4054.87,4155.9,4067.18,3871.28,4372.31,4169.74,4584.62,4540.51,4307.18,3927.69,4229.23,4608.21,4373.85,4626.15,1690,1708,1.73,0,0,0,0,
5,4037.95,4142.56,4058.46,3858.46,4373.85,4165.13,4581.03,4541.03,4305.64,3927.69,4217.95,4604.1,4366.67,4613.85,1689,1708,1.739,0,0,0,0,
6,4033.85,4140,4055.38,3863.08,4354.36,4167.18,4580,4539.49,4296.92,3926.67,4214.36,4598.46,4357.95,4611.79,1691,1706,1.746,0,0,0,0,
7,4037.44,4149.74,4058.97,3872.31,4358.46,4171.79,4581.03,4545.64,4295.9,3926.67,4220,4599.49,4356.92,4614.87,1689,1706,1.754,0,0,0,0,
8,4037.44,4145.13,4057.95,3865.64,4366.15,4158.46,4577.44,4545.13,4296.92,3927.69,4216.41,4598.97,4356.92,4615.9,1691,1706,1.761,0,0,0,0,
9,4037.95,4136.92,4055.38,3861.54,4355.38,4152.82,4577.95,4541.54,4293.85,3926.67,4214.36,4598.46,4357.95,4614.87,1690,1707,1.769,0,0,0,0,
10,4041.54,4145.64,4059.49,3874.87,4362.56,4165.13,4585.13,4547.69,4295.38,3929.74,4222.05,4603.08,4361.54,4612.31,1691,1711,1.777,0,0,0,0,
11,4047.18,4155.38,4068.21,3882.56,4384.62,4170.77,4587.69,4555.9,4306.67,3940.51,4231.28,4608.21,4370.77,4618.97,1691,1710,1.786,0,0,0,0,
12,4054.87,4156.92,4073.33,3879.49,4380.51,4167.18,4587.69,4556.41,4314.36,3944.1,4236.41,4614.36,4378.97,4632.82,1691,1711,1.793,0,0,0,0,
13,4052.31,4154.87,4068.21,3876.92,4362.56,4168.21,4586.67,4550.26,4309.23,3937.44,4226.15,4614.36,4372.31,4629.74,1692,1710,1.8,0,0,0,0,
14,4043.59,4142.05,4064.62,3877.44,4361.54,4169.23,4587.18,4546.67,4305.13,3936.41,4215.38,4607.69,4362.05,4615.38,1692,1709,1.808,0,0,0,0,
15,4044.1,4138.97,4067.69,3877.44,4370.26,4169.23,4590.77,4550.26,4311.79,3942.05,4223.59,4605.13,4366.15,4614.87,1692,1708,1.816,0,0,0,0,
16,4044.62,4150.26,4067.18,3877.95,4371.28,4170.77,4589.23,4549.74,4309.23,3937.95,4228.21,4605.64,4367.69,4618.97,1691,1711,1.825,0,0,0,0,
17,4043.59,4150.26,4067.18,3878.97,4363.08,4168.21,4584.1,4538.46,4292.82,3926.15,4217.44,4607.18,4357.95,4616.41,1692,1711,1.832,0,0,0,0,
18,4049.23,4148.21,4073.85,3880,4367.18,4165.64,4586.67,4536.41,4288.21,3924.1,4216.92,4611.28,4357.95,4622.05,1691,1711,1.839,0,0,0,0,
19,4054.36,4153.33,4073.85,3881.03,4366.67,4167.69,4586.67,4541.03,4294.36,3926.67,4224.1,4611.79,4360.51,4626.67,1691,1713,1.847,0,0,0,0,
20,4047.69,4149.23,4064.62,3876.41,4348.21,4171.28,4585.13,4538.97,4293.33,3922.56,4217.95,4608.21,4356.41,4620,1691,1712,1.856,0,0,0,0,
21,4043.59,4139.49,4065.64,3866.67,4348.21,4163.59,4584.62,4538.97,4292.82,3923.59,4212.82,4610.26,4353.85,4615.38,1690,1713,1.863,0,0,0,0,
22,4045.64,4135.38,4066.15,3864.1,4353.33,4153.85,4581.03,4540.51,4296.41,3926.67,4216.41,4607.18,4350.77,4611.28,1690,1712,1.871,0,0,0,0,
23,4038.97,4135.38,4055.9,3870.26,4345.13,4160.51,4582.05,4537.95,4294.36,3924.62,4214.87,4597.44,4348.21,4607.69,1689,1714,1.88,0,0,0,0,
24,4030.77,4138.97,4061.03,3871.79,4356.92,4170.77,4589.23,4542.56,4298.46,3925.64,4214.87,4603.59,4354.36,4614.87,1690,1714,1.887,0,0,0,0,
25,4038.97,4141.03,4073.33,3866.15,4368.72,4169.23,4590.26,4551.28,4306.67,3926.67,4220,4614.87,4360,4618.46,1689,1714,1.894,0,0,0,0,
26,4049.74,4138.46,4064.1,3863.08,4351.28,4167.18,4588.21,4552.82,4303.08,3924.1,4218.46,4610.77,4354.36,4609.74,1689,1713,1.902,0,0,0,0,
27,4049.23,4136.92,4056.41,3866.67,4351.28,4169.23,4589.74,4552.31,4303.08,3924.1,4215.38,4605.13,4351.79,4615.38,1689,1712,1.91,0,0,0,0,
28,4048.72,4136.92,4070.77,3875.38,4369.74,4168.21,4589.23,4554.87,4312.31,3924.62,4224.1,4612.82,4360.51,4626.67,1690,1709,1.918,0,0,0,0,
29,4052.31,4143.08,4078.97,3882.56,4367.69,4167.18,4587.69,4554.87,4313.33,3927.18,4234.36,4618.97,4366.67,4620.51,1689,1707,1.927,0,0,0,0,
30,4051.28,4152.82,4068.72,3879.49,4355.9,4170.26,4589.23,4552.82,4308.72,3929.74,4231.28,4613.85,4361.03,4617.44,1690,1707,1.933,0,0,0,0,
31,4049.74,4154.36,4063.08,3874.36,4345.64,4175.38,4589.23,4550.77,4303.59,3917.44,4223.08,4608.21,4355.38,4627.69,1690,1705,1.941,0,0,0,0,
32,4053.85,4149.74,4069.74,3876.92,4348.21,4169.23,4585.64,4546.67,4297.44,3909.74,4224.1,4609.23,4360.51,4630.26,1690,1708,1.949,0,0,0,0,
33,4061.03,4151.28,4077.44,3880,4360,4154.36,4583.59,4548.72,4301.03,3924.62,4230.26,4615.38,4369.74,4625.64,1691,1707,1.957,0,0,0,0,
34,4065.13,4153.85,4078.97,3881.54,4353.85,4160.51,4588.72,4554.36,4306.67,3933.85,4231.79,4619.49,4371.28,4628.72,1690,1709,1.965,0,0,0,0,
35,4063.59,4148.72,4075.38,3881.54,4346.15,4171.28,4591.28,4553.85,4303.59,3927.69,4230.77,4618.46,4368.21,4635.38,1691,1709,1.972,0,0,0,0,
36,4060,4138.46,4073.33,3877.95,4349.23,4156.92,4586.67,4551.79,4303.08,3925.64,4229.23,4616.41,4365.13,4631.79,1691,1710,1.98,0,0,0,0,
37,4057.95,4140.51,4076.41,3874.87,4345.13,4152.31,4589.23,4554.87,4309.23,3929.74,4232.31,4619.49,4365.64,4625.64,1692,1710,1.994,0,0,0,0,
38,4057.44,4152.82,4075.9,3878.97,4349.23,4172.82,4595.38,4558.97,4312.82,3931.79,4232.82,4620.51,4367.18,4632.31,1691,1710,1.996,0,0,0,0,
39,4054.87,4143.59,4068.21,3880.51,4356.92,4167.69,4589.23,4551.28,4304.62,3921.03,4217.44,4608.21,4352.82,4630.26,1691,1709,2.004,0,0,0,0,
40,4051.28,4124.1,4066.15,3866.67,4331.28,4150.77,4584.1,4538.97,4294.36,3907.69,4205.13,4597.44,4337.44,4613.85,1691,1707,2.012,0,0,0,0,
41,4050.77,4130.77,4071.28,3860,4317.44,4158.97,4586.67,4536.92,4294.36,3911.79,4212.31,4602.56,4345.13,4612.82,1692,1706,2.019,0,0,0,0,
42,4052.82,4142.56,4068.21,3874.36,4351.28,4162.05,4584.1,4540.51,4296.41,3919.49,4217.95,4605.13,4354.87,4627.18,1691,1707,2.028,0,0,0,0,
43,4051.28,4142.56,4061.03,3884.62,4371.79,4155.38,4580.51,4538.46,4294.36,3920,4219.49,4602.05,4354.36,4627.69,1692,1706,2.035,0,0,0,0,
44,4054.36,4147.69,4067.18,3879.49,4358.97,4164.62,4584.1,4536.41,4296.92,3922.56,4228.21,4607.18,4362.05,4622.56,1692,1706,2.044,0,0,0,0,
45,4070.26,4156.41,4074.87,3877.44,4354.36,4174.87,4586.67,4545.13,4306.15,3925.64,4233.33,4614.87,4371.79,4633.33,1692,1706,2.051,0,0,0,0,
46,4074.87,4150.77,4074.87,3880,4354.36,4165.64,4584.62,4549.74,4306.67,3927.69,4231.28,4616.41,4367.69,4643.08,1691,1707,2.059,0,0,0,0,
47,4061.54,4138.46,4073.85,3876.41,4338.97,4157.44,4584.1,4549.23,4301.54,3930.77,4230.77,4617.44,4364.62,4630.77,1692,1709,2.066,0,0,0,0,
48,4057.95,4141.03,4075.9,3876.41,4338.46,4164.62,4584.62,4551.79,4304.62,3929.74,4229.23,4617.44,4366.67,4617.95,1691,1710,2.074,0,0,0,0,
49,4070.77,4150.77,4080,3881.03,4355.38,4167.69,4585.13,4547.69,4305.64,3927.18,4229.74,4616.92,4364.1,4627.18,1692,1712,2.082,0,0,0,0,
50,4070.26,4152.31,4080.51,3884.62,4357.95,4162.05,4584.1,4542.05,4302.56,3929.23,4230.26,4619.49,4361.54,4637.95,1690,1711,2.09,0,0,0,0,
51,4060,4148.72,4077.44,3884.1,4354.36,4162.56,4584.62,4547.18,4306.67,3927.18,4226.15,4617.44,4362.05,4631.79,1690,1713,2.099,0,0,0,0,
52,4063.08,4150.26,4074.87,3879.49,4366.15,4168.72,4586.67,4553.85,4311.28,3928.72,4227.69,4615.38,4364.62,4628.21,1692,1711,2.105,0,0,0,0,
53,4071.79,4155.9,4075.9,3880,4369.23,4166.67,4587.18,4552.31,4311.28,3934.87,4233.85,4620.51,4368.21,4636.41,1690,1712,2.113,0,0,0,0,
54,4069.23,4152.82,4075.38,3883.59,4339.49,4167.69,4587.69,4550.26,4310.26,3935.38,4228.72,4622.56,4365.64,4635.38,1690,1711,2.121,0,0,0,0,
55,4060,4142.56,4073.33,3880,4326.15,4171.28,4586.15,4544.62,4305.64,3928.21,4214.36,4613.85,4359.49,4624.62,1690,1710,2.129,0,0,0,0,
56,4058.46,4141.54,4073.85,3874.87,4353.33,4158.97,4579.49,4533.85,4290.77,3921.03,4215.38,4610.77,4359.49,4625.64,1690,1710,2.137,0,0,0,0,
57,4065.13,4151.28,4073.85,3878.97,4370.26,4147.69,4578.46,4535.9,4290.77,3928.21,4230.77,4620,4367.69,4639.49,1689,1709,2.145,0,0,0,0,
58,4073.33,4155.38,4079.49,3888.21,4363.59,4155.38,4584.62,4548.21,4308.72,3938.46,4238.46,4629.74,4377.95,4647.18,1691,1709,2.152,0,0,0,0,
59,4076.41,4153.85,4087.18,3895.38,4361.54,4168.21,4587.69,4554.36,4310.26,3931.28,4235.38,4631.79,4380,4641.03,1690,1709,2.16,0,0,0,0,
60,4072.82,4152.31,4081.03,3893.33,4361.54,4168.21,4585.13,4550.26,4294.36,3922.56,4231.28,4624.62,4369.74,4630.26,1690,1711,2.168,0,0,0,0,
61,4073.85,4151.28,4076.41,3882.56,4355.38,4163.59,4584.62,4549.23,4298.46,3933.33,4231.28,4619.49,4369.23,4633.33,1690,1711,2.176,0,0,0,0,
62,4084.62,4160.51,4087.69,3882.05,4355.9,4170.77,4588.72,4558.46,4320,3947.69,4236.41,4626.67,4384.62,4649.74,1690,1713,2.184,0,0,0,0,
63,4089.23,4172.31,4091.79,3892.31,4360.51,4173.85,4586.15,4556.92,4320,3947.18,4236.92,4630.77,4387.18,4654.87,1691,1711,2.191,0,0,0,0,
64,4084.62,4167.69,4081.54,3898.97,4365.64,4159.49,4573.85,4542.05,4300.51,3938.97,4230.77,4623.08,4375.9,4646.15,1689,1712,2.2,0,0,0,0,
65,4082.05,4155.38,4077.95,3894.36,4367.18,4149.23,4568.21,4535.9,4293.33,3930.26,4230.26,4617.44,4373.85,4640.51,1691,1712,2.208,0,0,0,0,
66,4078.46,4150.77,4077.44,3883.08,4354.87,4158.97,4575.9,4538.97,4298.46,3925.13,4230.77,4616.41,4371.28,4635.9,1690,1710,2.215,0,0,0,0,
67,4075.38,4157.44,4072.31,3880.51,4357.44,4168.21,4581.03,4543.59,4305.64,3929.74,4230.77,4615.9,4372.82,4631.79,1691,1709,2.224,0,0,0,0,
68,4077.44,4160,4077.44,3885.13,4364.1,4164.62,4580,4551.79,4315.38,3938.46,4234.36,4621.03,4381.03,4634.36,1690,1708,2.231,0,0,0,0,
69,4077.44,4152.82,4084.62,3878.97,4348.21,4166.67,4585.13,4556.92,4320,3942.05,4234.87,4622.05,4378.46,4635.9,1691,1708,2.239,0,0,0,0,
70,4071.28,4150.26,4082.56,3876.92,4345.13,4168.72,4588.21,4555.38,4316.41,3944.1,4232.82,4617.44,4375.38,4632.82,1690,1708,2.246,0,0,0,0,
71,4075.38,4155.38,4083.59,3895.9,4362.56,4156.41,4577.44,4551.28,4308.72,3943.08,4232.82,4622.05,4380.51,4638.97,1690,1709,2.254,0,0,0,0,
72,4087.18,4156.92,4087.18,3900.51,4363.59,4150.26,4568.72,4545.64,4301.54,3940.51,4232.82,4631.79,4382.56,4648.21,1691,1708,2.262,0,0,0,0,
73,4090.26,4156.41,4082.56,3884.62,4353.33,4159.49,4574.87,4541.03,4297.44,3937.95,4233.33,4628.21,4376.41,4646.15,1690,1710,2.276,0,0,0,0,
74,4083.08,4151.28,4076.92,3877.95,4355.9,4162.56,4581.03,4541.03,4295.38,3930.26,4229.74,4617.95,4370.26,4638.46,1691,1708,2.277,0,0,0,0,
75,4078.46,4147.69,4080,3883.08,4356.92,4162.56,4578.46,4538.46,4294.87,3924.62,4225.64,4616.41,4364.62,4635.38,1690,1710,2.285,0,0,0,0,
76,4081.03,4150.77,4084.62,3890.77,4355.38,4171.28,4580.51,4538.97,4300,3928.72,4228.72,4621.03,4367.69,4633.85,1691,1710,2.294,0,0,0,0,
77,4077.44,4151.79,4084.62,3891.79,4358.97,4166.67,4584.1,4546.67,4306.15,3929.23,4232.82,4626.15,4372.31,4631.79,1691,1710,2.301,0,0,0,0,
78,4074.87,4151.28,4082.56,3882.05,4362.56,4158.97,4583.08,4552.82,4310.77,3927.18,4231.79,4629.74,4369.74,4636.41,1691,1710,2.31,0,0,0,0,
79,4082.56,4152.31,4078.46,3879.49,4368.72,4167.18,4585.64,4555.38,4313.33,3937.44,4231.28,4628.21,4370.77,4637.95,1691,1710,2.317,0,0,0,0,
80,4078.97,4145.13,4075.38,3883.59,4357.44,4165.64,4585.64,4551.79,4305.13,3943.08,4231.28,4620.51,4370.77,4629.74,1691,1710,2.325,0,0,0,0,
81,4067.18,4138.46,4074.36,3875.9,4339.49,4153.85,4581.54,4548.21,4303.08,3936.41,4229.74,4615.38,4367.69,4629.23,1690,1709,2.332,0,0,0,0,
82,4072.31,4148.72,4077.95,3874.36,4356.41,4161.03,4581.03,4555.38,4317.44,3940,4233.85,4623.59,4377.44,4646.15,1691,1709,2.34,0,0,0,0,
83,4082.05,4156.92,4079.49,3882.05,4366.67,4172.82,4584.1,4556.41,4317.95,3947.69,4238.46,4633.85,4387.69,4651.79,1690,1708,2.349,0,0,0,0,
84,4076.41,4151.79,4076.41,3878.97,4345.13,4167.18,4583.08,4543.59,4303.08,3944.1,4235.9,4628.72,4378.97,4641.54,1690,1710,2.356,0,0,0,0,
85,4074.36,4151.79,4075.38,3876.41,4347.18,4157.95,4577.95,4536.41,4299.49,3934.87,4230.26,4617.95,4370.77,4639.49,1691,1709,2.364,0,0,0,0,
86,4076.92,4154.36,4076.41,3880.51,4366.67,4156.41,4574.87,4542.56,4303.59,3934.87,4226.15,4616.92,4372.31,4641.03,1690,1711,2.371,0,0,0,0,
87,4075.38,4156.41,4076.41,3884.62,4366.15,4159.49,4576.92,4548.72,4302.56,3942.56,4229.23,4623.08,4374.36,4642.56,1691,1711,2.379,0,0,0,0,
88,4078.46,4157.44,4076.92,3886.67,4359.49,4168.72,4583.59,4553.85,4305.13,3939.49,4232.31,4624.62,4371.79,4639.49,1691,1710,2.388,0,0,0,0,
89,4073.33,4144.1,4071.79,3875.9,4351.28,4171.28,4584.1,4552.82,4308.21,3925.13,4223.59,4618.46,4362.56,4626.67,1691,1711,2.395,0,0,0,0,
90,4055.9,4133.85,4064.1,3858.46,4341.54,4161.03,4573.33,4542.05,4300.51,3925.64,4214.36,4612.82,4356.92,4619.49,1692,1711,2.404,0,0,0,0,
91,4061.54,4148.21,4067.69,3870.26,4364.62,4159.49,4570.77,4540.51,4300,3943.08,4225.64,4616.41,4369.74,4634.87,1691,1711,2.418,0,0,0,0,
92,4089.23,4166.15,4080.51,3892.82,4390.26,4164.1,4580,4551.79,4311.79,3950.26,4241.54,4629.74,4385.13,4650.77,1692,1711,2.42,0,0,0,0,
93,4093.85,4155.38,4081.03,3884.1,4362.56,4157.44,4581.54,4554.87,4307.69,3937.44,4233.33,4631.28,4373.85,4640,1690,1711,2.426,0,0,0,0,
94,4074.36,4135.9,4073.33,3872.31,4333.85,4156.92,4577.95,4548.72,4293.33,3929.23,4220.51,4618.97,4357.95,4626.67,1692,1711,2.434,0,0,0,0,
95,4067.18,4134.36,4073.85,3874.36,4351.28,4170.77,4584.1,4553.33,4302.56,3940.51,4228.21,4615.38,4368.21,4634.87,1691,1711,2.442,0,0,0,0,
96,4067.69,4137.95,4073.33,3868.21,4365.13,4168.72,4585.13,4558.46,4314.87,3944.1,4235.9,4621.03,4374.36,4642.56,1690,1710,2.451,0,0,0,0,
97,4062.05,4132.82,4065.13,3858.97,4346.15,4158.97,4578.46,4552.82,4307.69,3930.26,4223.59,4616.41,4357.44,4630.77,1690,1712,2.457,0,0,0,0,
98,4065.13,4131.79,4066.67,3861.03,4344.1,4166.15,4582.05,4553.85,4310.26,3933.85,4215.38,4612.82,4353.33,4621.54,1690,1710,2.466,0,0,0,0,
99,4072.31,4137.44,4077.44,3867.69,4364.1,4165.13,4583.08,4555.38,4314.87,3945.13,4220,4617.44,4365.64,4626.67,1690,1710,2.474,0,0,0,0,
100,4072.31,4140,4077.44,3874.36,4362.56,4156.92,4577.44,4547.69,4304.1,3942.05,4228.21,4616.41,4368.72,4631.28,1690,1710,2.481,0,0,0,0,
101,4075.9,4144.1,4075.9,3882.05,4360.51,4160.51,4578.97,4551.79,4306.15,3941.03,4234.87,4618.46,4368.72,4635.9,1691,1710,2.49,0,0,0,0,
102,4071.79,4143.59,4074.36,3876.92,4352.82,4156.92,4578.97,4553.85,4313.85,3935.38,4226.15,4616.92,4364.62,4634.87,1691,1709,2.497,0,0,0,0,
103,4060.51,4134.87,4066.67,3866.15,4327.69,4149.23,4571.28,4539.49,4302.56,3928.21,4212.31,4607.69,4355.9,4626.15,1690,1710,2.505,0,0,0,0,
104,4066.67,4140.51,4068.72,3863.08,4332.31,4161.03,4569.74,4538.97,4297.44,3938.97,4219.49,4610.26,4360.51,4626.67,1692,1708,2.512,0,0,0,0,
105,4072.82,4150.77,4076.92,3864.1,4367.18,4171.79,4571.28,4551.79,4304.1,3941.54,4227.18,4620,4367.18,4635.38,1690,1708,2.52,0,0,0,0,
106,4064.1,4145.64,4075.38,3865.13,4375.9,4168.21,4572.82,4545.64,4298.97,3926.15,4218.97,4617.95,4360,4632.82,1692,1707,2.529,0,0,0,0,
107,4069.74,4135.38,4074.36,3863.59,4353.33,4168.21,4579.49,4537.44,4295.9,3926.15,4215.38,4613.33,4355.38,4624.1,1692,1707,2.536,0,0,0,0,
108,4075.9,4135.38,4076.92,3864.1,4333.85,4173.33,4581.03,4542.56,4302.56,3933.33,4219.49,4615.38,4357.44,4626.15,1692,1709,2.544,0,0,0,0,
109,4062.56,4139.49,4074.87,3873.33,4342.05,4174.36,4574.36,4544.62,4301.03,3929.23,4218.97,4615.38,4358.46,4630.77,1692,1709,2.551,0,0,0,0,
110,4061.54,4140,4074.36,3880.51,4358.97,4171.28,4571.79,4538.97,4294.36,3925.13,4216.41,4614.87,4358.46,4629.74,1693,1711,2.559,0,0,0,0,
111,4075.38,4137.44,4074.36,3869.23,4348.21,4167.69,4572.31,4539.49,4295.38,3928.21,4217.44,4616.92,4360,4632.31,1693,1710,2.567,0,0,0,0,
112,4082.05,4141.03,4073.85,3866.15,4340.51,4165.64,4570.77,4546.15,4301.54,3939.49,4227.69,4620,4367.18,4642.05,1691,1712,2.575,0,0,0,0,
113,4086.67,4149.23,4075.9,3877.95,4363.08,4165.13,4571.79,4546.15,4303.59,3943.59,4233.85,4620.51,4371.28,4641.54,1692,1710,2.584,0,0,0,0,
114,4077.44,4142.05,4071.28,3870.26,4366.15,4163.59,4572.31,4536.41,4295.38,3928.72,4219.49,4609.23,4360.51,4629.23,1690,1711,2.591,0,0,0,0,
115,4052.82,4126.15,4060.51,3857.44,4350.26,4164.62,4569.23,4533.33,4290.26,3920.51,4210.26,4598.97,4353.33,4623.08,1691,1709,2.599,0,0,0,0,
116,4044.62,4122.05,4057.95,3862.05,4349.74,4169.23,4570.26,4538.97,4294.36,3926.67,4215.9,4600,4353.85,4620.51,1689,1709,2.606,0,0,0,0,
117,4054.36,4124.62,4059.49,3855.9,4345.64,4174.87,4571.79,4539.49,4294.36,3926.15,4215.9,4602.56,4351.79,4613.85,1690,1711,2.614,0,0,0,0,
118,4054.36,4121.03,4060.51,3849.23,4343.59,4173.33,4570.26,4538.46,4294.36,3927.69,4213.85,4601.54,4356.92,4611.28,1689,1710,2.622,0,0,0,0,
119,4060,4123.59,4063.59,3865.64,4357.44,4168.21,4569.23,4540.51,4295.9,3928.72,4217.95,4604.62,4365.13,4617.95,1689,1711,2.631,0,0,0,0,
120,4068.72,4125.13,4061.03,3864.62,4350.77,4166.67,4569.74,4536.41,4287.69,3912.82,4214.87,4602.05,4357.44,4623.59,1690,1710,2.637,0,0,0,0,
121,4066.15,4122.05,4055.38,3850.77,4338.46,4167.69,4570.26,4535.38,4286.15,3910.77,4211.79,4595.38,4351.28,4628.72,1689,1712,2.645,0,0,0,0,
122,4062.56,4127.69,4060,3860.51,4341.03,4168.21,4573.33,4540,4298.46,3930.77,4217.95,4598.97,4360,4632.31,1689,1711,2.654,0,0,0,0,
123,4062.05,4129.74,4063.08,3872.31,4343.08,4167.69,4575.38,4536.41,4296.92,3929.74,4215.9,4604.1,4357.95,4622.05,1689,1712,2.661,0,0,0,0,
124,4056.41,4121.54,4056.41,3862.05,4342.05,4167.69,4571.28,4531.28,4284.62,3911.79,4205.64,4598.46,4348.21,4611.79,1690,1712,2.669,0,0,0,0,
125,4048.72,4117.44,4050.26,3844.1,4334.87,4169.74,4567.18,4530.26,4285.13,3906.15,4200.51,4591.79,4343.59,4612.31,1689,1712,2.676,0,0,0,0,
126,4049.23,4122.56,4049.74,3843.59,4336.92,4172.31,4569.23,4530.26,4296.41,3912.31,4202.05,4594.87,4344.1,4614.87,1690,1711,2.684,0,0,0,0,
127,4057.95,4126.67,4058.97,3856.92,4353.33,4170.26,4572.31,4535.9,4304.62,3922.05,4211.28,4600.51,4352.31,4618.97,1689,1710,2.692,0,0,0,0,
128,4062.56,4126.15,4062.56,3856.41,4350.77,4166.15,4570.26,4541.54,4301.54,3921.54,4218.97,4599.49,4357.44,4620.51,1691,1709,2.701,0,0,0,0,
0,4056.41,4123.08,4055.38,3850.77,4337.44,4165.64,4568.72,4537.95,4295.38,3909.23,4212.31,4598.97,4351.28,4617.95,1691,1705,2.708,0,0,0,0,
1,4050.26,4121.03,4053.85,3854.36,4347.69,4167.69,4569.74,4538.46,4294.87,3908.72,4202.56,4600.51,4348.72,4617.44,1691,1707,2.715,0,0,0,0,
2,4052.82,4120,4056.92,3850.26,4341.54,4164.62,4567.18,4536.41,4289.23,3908.21,4200,4594.36,4347.18,4616.41,1693,1706,2.723,0,0,0,0,
3,4054.87,4115.9,4053.33,3841.03,4318.46,4160.51,4564.1,4524.62,4277.95,3890.77,4201.03,4590.77,4341.54,4610.26,1691,1707,2.732,0,0,0,0,
4,4058.46,4120,4054.87,3850.77,4332.82,4161.03,4565.64,4527.69,4276.41,3889.74,4208.72,4600.51,4351.28,4614.36,1693,1708,2.739,0,0,0,0,
5,4067.69,4124.62,4062.56,3859.49,4347.18,4164.62,4567.69,4537.95,4284.1,3908.72,4217.44,4606.15,4365.13,4628.72,1692,1709,2.747,0,0,0,0,
6,4069.74,4123.08,4063.08,3854.87,4330.77,4163.59,4568.72,4538.97,4292.31,3915.9,4217.44,4603.08,4361.54,4632.31,1692,1709,2.755,0,0,0,0,
7,4059.49,4120.51,4060,3851.28,4323.59,4157.95,4566.15,4534.87,4291.79,3912.31,4213.33,4602.05,4354.36,4624.1,1691,1710,2.762,0,0,0,0,
8,4050.77,4116.41,4053.85,3847.18,4326.67,4150.77,4555.9,4528.21,4278.46,3906.15,4210.26,4598.97,4353.85,4617.95,1692,1711,2.771,0,0,0,0,
9,4056.41,4116.92,4051.28,3846.15,4328.21,4147.18,4555.38,4529.23,4283.59,3910.77,4213.85,4600,4358.97,4619.49,1691,1710,2.779,0,0,0,0,
10,4066.67,4125.13,4061.03,3850.26,4336.92,4160.51,4567.69,4544.1,4305.13,3925.64,4220.51,4609.74,4367.69,4629.23,1691,1711,2.786,0,0,0,0,
11,4062.05,4126.15,4061.03,3851.28,4337.44,4169.74,4563.08,4541.03,4300,3923.08,4217.44,4606.15,4365.13,4632.31,1691,1708,2.794,0,0,0,0,
12,4056.41,4120.51,4049.74,3848.21,4334.36,4159.49,4553.33,4524.62,4282.56,3909.23,4211.79,4594.87,4355.9,4620.51,1690,1709,2.802,0,0,0,0,
13,4062.56,4123.59,4051.28,3850.26,4347.69,4156.41,4563.08,4533.33,4291.79,3911.28,4216.41,4597.44,4357.95,4618.46,1691,1705,2.809,0,0,0,0,
14,4061.54,4125.64,4057.44,3849.23,4348.72,4162.56,4564.1,4541.03,4300.51,3916.41,4216.92,4603.08,4359.49,4623.59,1690,1705,2.817,0,0,0,0,
15,4058.97,4117.44,4057.44,3845.13,4328.21,4156.92,4552.31,4526.67,4287.18,3909.74,4211.28,4600,4355.9,4623.08,1691,1705,2.825,0,0,0,0,
16,4068.72,4114.36,4055.9,3853.33,4321.54,4147.69,4551.79,4517.44,4275.9,3907.69,4212.31,4597.95,4360,4624.1,1691,1705,2.834,0,0,0,0,
17,4077.44,4125.13,4060.51,3863.08,4341.03,4155.38,4555.9,4523.59,4280,3913.85,4221.03,4600.51,4368.72,4632.31,1691,1708,2.841,0,0,0,0,
18,4081.54,4140.51,4070.26,3866.67,4364.62,4169.23,4561.03,4532.31,4293.85,3925.64,4232.31,4611.28,4378.46,4638.97,1691,1710,2.849,0,0,0,0,
19,4086.15,4142.56,4074.36,3867.18,4369.74,4171.28,4570.77,4540.51,4305.13,3938.46,4237.95,4622.56,4387.18,4642.56,1691,1710,2.856,0,0,0,0,
20,4071.79,4126.67,4065.13,3858.46,4350.26,4158.97,4567.18,4541.54,4302.56,3933.85,4226.15,4610.77,4376.92,4633.33,1691,1711,2.864,0,0,0,0,
21,4055.9,4114.87,4055.38,3847.18,4329.23,4152.82,4561.54,4534.36,4295.38,3922.56,4209.74,4594.87,4358.46,4614.87,1692,1712,2.873,0,0,0,0,
22,4069.74,4121.54,4066.15,3851.28,4333.85,4168.21,4571.28,4535.9,4296.92,3921.54,4217.95,4604.1,4367.18,4623.59,1691,1712,2.88,0,0,0,0,
23,4078.97,4126.67,4074.36,3853.85,4351.79,4173.33,4574.87,4541.03,4304.62,3928.72,4234.36,4617.95,4383.08,4644.1,1691,1711,2.888,0,0,0,0,
24,4067.69,4119.49,4064.1,3847.18,4348.72,4163.08,4565.64,4540,4305.13,3929.74,4227.18,4611.79,4375.38,4638.46,1690,1711,2.895,0,0,0,0,
25,4065.64,4113.85,4057.44,3848.72,4328.21,4166.67,4568.72,4536.41,4291.28,3915.9,4212.82,4601.03,4363.59,4629.23,1690,1710,2.904,0,0,0,0,
26,4068.72,4116.92,4059.49,3852.31,4336.41,4168.21,4570.77,4534.87,4284.1,3910.77,4215.38,4603.59,4367.69,4633.85,1690,1710,2.911,0,0,0,0,
27,4068.72,4118.97,4064.62,3846.15,4353.85,4154.36,4556.41,4535.38,4292.31,3922.05,4217.95,4613.85,4372.82,4633.85,1690,1708,2.919,0,0,0,0,
28,4074.87,4120.51,4069.74,3842.56,4345.64,4155.38,4555.9,4535.9,4296.92,3928.72,4221.03,4618.46,4374.87,4632.82,1690,1708,2.927,0,0,0,0,
29,4080,4126.15,4074.36,3857.44,4345.64,4170.77,4568.21,4540.51,4297.44,3927.18,4232.31,4619.49,4380.51,4642.56,1690,1710,2.934,0,0,0,0,
30,4075.38,4124.1,4066.15,3866.15,4348.21,4162.56,4562.05,4537.44,4295.38,3918.97,4228.72,4612.82,4376.92,4637.95,1691,1709,2.942,0,0,0,0,
31,4072.31,4115.38,4058.97,3852.82,4329.74,4154.87,4557.95,4526.67,4282.56,3910.26,4213.33,4602.56,4365.64,4627.69,1690,1712,2.95,0,0,0,0,
32,4074.87,4117.44,4065.64,3850.26,4330.26,4166.15,4569.23,4529.74,4281.03,3915.9,4214.36,4606.15,4366.67,4635.38,1691,1710,2.959,0,0,0,0,
33,4076.92,4126.67,4070.77,3861.03,4353.33,4161.03,4563.59,4540,4295.9,3920,4221.54,4616.92,4375.38,4640.51,1690,1711,2.966,0,0,0,0,
34,4075.9,4125.13,4071.28,3853.85,4356.92,4147.18,4551.79,4537.44,4295.38,3916.92,4217.95,4613.85,4374.36,4633.85,1691,1711,2.974,0,0,0,0,
35,4073.85,4120.51,4072.82,3847.18,4354.36,4151.79,4555.9,4533.33,4287.69,3921.03,4215.9,4607.18,4370.26,4631.79,1690,1711,2.981,0,0,0,0,
36,4075.9,4123.59,4071.28,3857.44,4357.44,4157.44,4558.97,4536.92,4291.28,3920.51,4217.44,4612.82,4368.72,4631.28,1691,1710,2.989,0,0,0,0,
37,4074.36,4122.56,4067.69,3856.92,4347.18,4151.28,4556.41,4537.44,4299.49,3910.77,4214.87,4616.41,4366.67,4628.72,1689,1711,2.997,0,0,0,0,
38,4067.69,4120.51,4066.67,3847.18,4337.44,4152.82,4559.49,4535.38,4297.44,3912.82,4213.85,4609.23,4366.15,4630.77,1690,1710,3.005,0,0,0,0,
39,4066.15,4120,4067.69,3847.69,4339.49,4157.44,4563.59,4534.36,4283.59,3913.85,4213.85,4605.64,4364.62,4631.79,1689,1710,3.014,0,0,0,0,
40,4074.87,4113.85,4070.77,3849.74,4348.21,4155.38,4565.64,4535.38,4284.62,3915.9,4214.36,4611.28,4365.13,4629.74,1688,1710,3.021,0,0,0,0,
41,4079.49,4111.28,4073.33,3846.67,4348.72,4152.82,4562.56,4538.46,4297.44,3926.15,4215.38,4615.9,4368.72,4630.26,1689,1708,3.029,0,0,0,0,
42,4071.28,4117.44,4066.67,3844.1,4332.31,4150.77,4555.38,4536.41,4289.23,3920.51,4214.87,4611.28,4368.72,4631.79,1688,1710,3.036,0,0,0,0,
43,4064.1,4121.03,4063.08,3849.23,4332.31,4153.33,4556.41,4533.33,4280.51,3910.77,4215.9,4608.72,4366.67,4634.36,1689,1708,3.044,0,0,0,0,
44,4066.15,4118.97,4069.23,3857.44,4355.9,4157.44,4564.1,4537.44,4293.33,3915.38,4218.97,4612.31,4369.23,4635.38,1688,1709,3.052,0,0,0,0,
45,4064.62,4120.51,4068.21,3853.33,4360,4157.44,4563.08,4537.95,4293.33,3917.44,4214.87,4609.23,4367.69,4629.74,1689,1708,3.06,0,0,0,0,
46,4059.49,4121.54,4062.05,3845.64,4345.64,4154.36,4555.38,4527.69,4276.41,3910.77,4206.15,4603.08,4360,4623.08,1689,1708,3.067,0,0,0,0,
47,4058.97,4113.85,4060.51,3845.13,4337.95,4151.28,4552.82,4521.54,4274.87,3907.18,4203.59,4598.97,4356.92,4622.05,1690,1709,3.075,0,0,0,0,
48,4058.46,4111.28,4056.92,3846.15,4338.46,4151.79,4554.87,4520.51,4278.97,3907.69,4199.49,4597.44,4355.9,4618.46,1691,1709,3.084,0,0,0,0,
49,4059.49,4116.92,4054.87,3847.69,4345.13,4155.9,4555.9,4522.05,4276.41,3910.26,4204.62,4597.95,4358.46,4617.44,1691,1710,3.091,0,0,0,0,
50,4064.1,4118.46,4060,3845.64,4352.31,4156.92,4555.9,4532.31,4281.54,3913.85,4216.41,4602.05,4365.64,4623.08,1692,1710,3.099,0,0,0,0,
51,4056.92,4108.21,4058.46,3837.95,4343.08,4153.85,4556.92,4538.46,4288.72,3913.33,4209.74,4601.03,4368.21,4623.59,1691,1710,3.107,0,0,0,0,
52,4048.21,4103.08,4049.23,3839.49,4330.26,4156.92,4557.44,4530.77,4288.72,3915.38,4201.03,4595.9,4365.64,4620.51,1692,1709,3.114,0,0,0,0,
53,4056.41,4113.85,4051.79,3848.72,4342.56,4159.49,4558.46,4530.26,4288.72,3920.51,4213.33,4597.95,4370.26,4628.72,1691,1709,3.122,0,0,0,0,
54,4067.69,4124.1,4062.56,3851.28,4366.67,4156.41,4557.44,4541.03,4291.79,3923.59,4223.59,4604.62,4377.44,4642.05,1693,1709,3.13,0,0,0,0,
55,4062.56,4120.51,4062.05,3849.23,4363.59,4155.9,4556.41,4536.92,4286.15,3921.03,4217.44,4604.1,4372.31,4637.95,1691,1710,3.139,0,0,0,0,
56,4057.95,4113.85,4056.92,3846.67,4340.51,4155.9,4555.38,4525.64,4277.95,3913.33,4211.28,4598.97,4362.05,4626.15,1692,1710,3.146,0,0,0,0,
57,4063.08,4118.97,4057.95,3845.64,4343.59,4150.26,4554.87,4532.31,4282.05,3909.74,4212.82,4598.46,4362.05,4630.26,1691,1710,3.154,0,0,0,0,
58,4061.03,4124.62,4059.49,3849.23,4358.46,4147.69,4555.38,4538.46,4286.67,3913.85,4216.41,4604.62,4367.18,4637.95,1691,1711,3.161,0,0,0,0,
59,4051.79,4112.82,4056.92,3846.15,4339.49,4150.77,4555.38,4528.21,4282.56,3913.85,4210.26,4603.59,4361.03,4625.64,1692,1711,3.169,0,0,0,0,
60,4048.21,4101.03,4051.28,3835.38,4320,4148.72,4553.85,4519.49,4274.87,3908.21,4197.95,4589.23,4349.23,4607.18,1691,1711,3.177,0,0,0,0,
61,4050.26,4106.15,4048.72,3839.49,4330.77,4148.21,4552.82,4520.51,4271.79,3906.15,4196.92,4587.18,4348.21,4609.74,1691,1711,3.185,0,0,0,0,
62,4053.85,4112.82,4056.41,3846.15,4343.08,4154.36,4555.9,4524.62,4276.41,3907.69,4203.59,4598.97,4355.38,4617.95,1691,1711,3.194,0,0,0,0,
63,4051.28,4107.18,4058.46,3837.95,4347.69,4156.41,4557.95,4535.38,4283.08,3909.74,4202.05,4596.41,4351.28,4618.46,1691,1710,3.2,0,0,0,0,
64,4040.51,4103.08,4046.67,3830.26,4351.79,4150.77,4554.87,4540,4284.62,3910.26,4197.95,4583.59,4342.05,4613.85,1691,1711,3.208,0,0,0,0,
65,4035.9,4104.62,4040.51,3831.79,4344.62,4149.74,4552.82,4527.69,4276.92,3910.26,4196.92,4582.56,4345.13,4606.67,1692,1710,3.216,0,0,0,0,
66,4044.1,4105.64,4047.69,3831.79,4338.46,4152.31,4555.38,4521.03,4275.9,3906.15,4197.95,4586.67,4350.77,4604.1,1691,1710,3.224,0,0,0,0,
67,4047.18,4109.74,4052.82,3838.97,4344.1,4152.31,4555.9,4526.67,4280,3903.59,4199.49,4584.62,4348.21,4607.69,1692,1711,3.232,0,0,0,0,
68,4042.05,4112.31,4050.26,3846.15,4338.46,4154.36,4552.82,4524.1,4272.31,3906.15,4197.44,4582.56,4347.18,4609.23,1692,1709,3.24,0,0,0,0,
69,4044.62,4112.82,4050.26,3839.49,4331.79,4152.82,4551.28,4520,4266.15,3907.69,4196.41,4587.69,4351.28,4610.26,1692,1711,3.248,0,0,0,0,
70,4054.36,4117.44,4054.87,3839.49,4345.64,4149.23,4554.87,4531.28,4283.08,3914.87,4205.64,4597.95,4360,4616.92,1691,1712,3.255,0,0,0,0,
71,4056.92,4124.62,4061.03,3849.23,4360,4155.9,4562.56,4544.1,4297.95,3927.18,4217.44,4605.64,4370.26,4629.23,1692,1713,3.263,0,0,0,0,
72,4054.87,4121.54,4062.56,3849.23,4357.44,4161.03,4561.54,4538.46,4290.77,3923.59,4216.92,4602.56,4367.18,4635.9,1692,1712,3.271,0,0,0,0,
73,4057.44,4113.33,4060,3838.97,4338.46,4154.87,4555.38,4531.79,4282.56,3910.77,4209.23,4597.95,4357.95,4631.28,1690,1712,3.28,0,0,0,0,
74,4056.41,4110.26,4057.44,3831.28,4323.59,4151.28,4555.38,4535.9,4289.23,3913.85,4210.26,4598.46,4363.08,4625.64,1691,1712,3.287,0,0,0,0,
75,4051.28,4112.31,4058.46,3833.85,4336.92,4154.36,4558.97,4544.1,4298.46,3920.51,4217.95,4602.56,4370.26,4632.82,1690,1710,3.295,0,0,0,0,
76,4047.69,4111.28,4055.9,3834.36,4351.28,4153.33,4555.38,4538.97,4290.77,3910.77,4214.87,4598.97,4364.62,4635.9,1690,1708,3.302,0,0,0,0,
77,4042.56,4106.67,4050.77,3832.31,4342.05,4149.23,4550.77,4525.64,4275.9,3906.67,4205.13,4591.79,4359.49,4623.08,1690,1708,3.31,0,0,0,0,
78,4043.59,4104.62,4054.36,3840,4334.87,4150.26,4552.82,4530.26,4281.54,3920,4207.69,4596.92,4361.54,4618.46,1691,1708,3.318,0,0,0,0,
79,4051.79,4108.21,4061.54,3845.64,4338.97,4149.23,4556.41,4539.49,4290.26,3922.05,4211.79,4603.08,4364.1,4625.13,1691,1709,3.326,0,0,0,0,
80,4046.15,4108.21,4057.44,3831.79,4334.87,4142.56,4554.36,4527.18,4281.03,3908.72,4202.56,4596.41,4363.08,4621.03,1692,1709,3.334,0,0,0,0,
81,4043.08,4104.62,4053.85,3824.62,4329.23,4137.44,4549.74,4521.03,4274.36,3911.79,4200.51,4593.85,4362.56,4615.38,1692,1711,3.341,0,0,0,0,
82,4057.95,4111.28,4061.54,3841.03,4338.97,4139.49,4552.82,4535.9,4285.64,3927.18,4214.87,4603.08,4368.72,4627.69,1692,1710,3.349,0,0,0,0,
83,4062.56,4124.62,4062.56,3849.23,4348.21,4143.08,4556.92,4542.56,4292.82,3931.79,4218.46,4602.05,4372.82,4634.36,1692,1712,3.357,0,0,0,0,
84,4050.77,4123.08,4055.38,3838.97,4345.64,4142.05,4554.87,4535.38,4285.13,3918.46,4205.13,4588.72,4364.62,4622.56,1693,1713,3.365,0,0,0,0,
85,4041.03,4107.18,4051.79,3829.74,4334.87,4135.9,4551.79,4531.79,4276.41,3898.97,4195.9,4583.59,4353.33,4612.82,1692,1712,3.372,0,0,0,0,
86,4038.46,4101.03,4050.26,3829.74,4325.64,4133.85,4551.28,4527.18,4274.36,3897.44,4197.44,4583.59,4352.82,4613.33,1693,1711,3.38,0,0,0,0,
87,4042.05,4108.21,4050.77,3832.82,4329.23,4140,4551.28,4524.1,4274.87,3912.31,4202.05,4587.18,4362.05,4617.44,1692,1709,3.388,0,0,0,0,
88,4045.64,4106.15,4051.79,3828.72,4334.87,4140,4549.74,4530.77,4276.92,3913.85,4203.08,4590.77,4367.69,4620.51,1692,1709,3.396,0,0,0,0,
89,4042.05,4100,4048.72,3827.18,4335.9,4141.54,4551.79,4538.46,4287.18,3913.85,4206.15,4590.77,4364.62,4622.05,1692,1709,3.404,0,0,0,0,
90,4046.15,4113.33,4050.26,3838.97,4344.62,4155.38,4556.41,4542.05,4301.03,3933.33,4215.9,4593.85,4370.77,4628.21,1691,1709,3.412,0,0,0,0,
91,4057.44,4125.64,4060,3849.74,4351.28,4155.9,4556.41,4541.54,4299.49,3938.46,4219.49,4603.08,4384.62,4634.87,1691,1709,3.419,0,0,0,0,
92,4056.92,4110.77,4058.46,3838.46,4343.08,4136.41,4551.28,4536.41,4283.08,3918.97,4209.23,4602.56,4378.46,4630.77,1690,1710,3.427,0,0,0,0,
93,4051.28,4106.67,4051.28,3829.23,4345.64,4136.92,4551.79,4535.38,4281.54,3917.95,4204.62,4598.46,4369.23,4630.77,1691,1710,3.436,0,0,0,0,
94,4052.31,4120,4054.87,3836.92,4348.72,4155.38,4557.44,4542.56,4295.38,3930.77,4215.9,4603.08,4377.44,4632.82,1690,1711,3.444,0,0,0,0,
95,4051.79,4112.31,4055.9,3833.85,4332.82,4149.74,4555.9,4543.08,4296.92,3925.64,4221.03,4603.59,4376.41,4621.03,1691,1711,3.452,0,0,0,0,
96,4048.72,4103.59,4051.79,3825.13,4338.46,4133.33,4553.85,4537.95,4292.31,3918.46,4214.36,4598.46,4365.64,4615.9,1690,1712,3.459,0,0,0,0,
97,4048.21,4109.23,4050.77,3834.36,4348.72,4137.44,4557.44,4542.05,4296.41,3930.26,4207.18,4595.9,4363.08,4624.62,1691,1713,3.466,0,0,0,0,
98,4038.46,4101.03,4042.56,3833.85,4324.62,4142.56,4552.82,4537.44,4293.33,3929.23,4198.97,4588.21,4356.92,4619.49,1692,1712,3.474,0,0,0,0,
99,4029.74,4091.79,4031.79,3814.36,4324.1,4133.33,4545.13,4528.72,4285.64,3911.28,4193.85,4580.51,4353.33,4611.28,1691,1714,3.482,0,0,0,0,
100,4039.49,4103.59,4040.51,3816.41,4357.44,4135.9,4551.79,4535.9,4294.87,3916.92,4200.51,4585.13,4363.59,4619.49,1692,1711,3.49,0,0,0,0,
101,4048.21,4110.77,4050.77,3833.33,4348.21,4145.13,4560,4541.03,4297.95,3925.13,4204.1,4589.74,4364.1,4620.51,1691,1711,3.498,0,0,0,0,
102,4041.54,4101.54,4045.64,3830.26,4317.44,4139.49,4555.9,4533.33,4285.13,3905.64,4196.92,4583.08,4351.79,4611.79,1691,1710,3.505,0,0,0,0,
103,4044.1,4104.1,4048.72,3825.13,4327.69,4137.95,4552.82,4534.36,4286.67,3895.38,4196.92,4587.69,4357.44,4618.46,1691,1710,3.513,0,0,0,0,
104,4056.41,4120,4059.49,3835.9,4342.05,4154.36,4556.92,4542.05,4293.33,3909.23,4208.72,4599.49,4373.33,4632.31,1692,1709,3.521,0,0,0,0,
105,4057.44,4126.15,4058.46,3840,4341.54,4157.95,4557.95,4535.38,4283.59,3916.41,4209.74,4595.9,4371.28,4636.41,1691,1710,3.529,0,0,0,0,
106,4049.23,4118.97,4048.72,3833.85,4347.18,4136.92,4548.72,4524.62,4275.38,3912.31,4199.49,4586.15,4364.1,4627.69,1692,1710,3.537,0,0,0,0,
107,4045.64,4115.9,4043.59,3831.28,4342.56,4126.67,4541.03,4522.05,4276.92,3906.15,4198.97,4587.18,4364.1,4619.49,1691,1709,3.545,0,0,0,0,
108,4050.77,4119.49,4048.72,3830.26,4326.67,4137.44,4548.72,4522.05,4272.82,3892.82,4203.08,4591.28,4365.13,4619.49,1692,1711,3.552,0,0,0,0,
109,4058.46,4119.49,4057.44,3831.79,4333.33,4141.54,4555.9,4529.74,4272.82,3893.33,4201.54,4590.77,4373.33,4623.59,1692,1709,3.56,0,0,0,0,
110,4061.03,4121.54,4058.97,3837.44,4350.26,4135.38,4555.9,4542.56,4289.74,3911.79,4207.69,4597.95,4385.13,4631.28,1691,1711,3.569,0,0,0,0,
111,4057.44,4118.46,4056.92,3834.36,4341.03,4141.54,4560.51,4543.59,4296.92,3910.26,4214.36,4602.56,4380.51,4634.36,1692,1709,3.577,0,0,0,0,
112,4054.87,4109.74,4058.46,3826.67,4326.67,4151.79,4566.67,4541.54,4291.28,3896.92,4209.74,4597.95,4371.79,4635.9,1691,1710,3.584,0,0,0,0,
113,4062.56,4115.38,4064.62,3835.38,4338.46,4145.13,4569.23,4554.36,4300.51,3911.28,4219.49,4605.13,4386.67,4648.72,1691,1709,3.591,0,0,0,0,
114,4069.23,4125.13,4069.74,3844.62,4341.03,4133.33,4568.21,4560.51,4314.36,3934.87,4232.31,4615.38,4397.95,4654.87,1691,1708,3.599,0,0,0,0,
115,4066.67,4122.05,4066.15,3837.95,4324.62,4136.41,4560,4547.18,4307.69,3928.21,4222.05,4609.23,4386.67,4645.13,1691,1708,3.607,0,0,0,0,
116,4066.67,4120.51,4061.54,3834.36,4330.26,4142.05,4552.82,4537.44,4293.85,3908.21,4211.79,4601.54,4383.08,4645.13,1690,1709,3.615,0,0,0,0,
117,4069.23,4123.59,4063.08,3834.36,4342.05,4134.87,4552.82,4537.44,4285.64,3905.64,4219.49,4605.13,4388.72,4648.21,1692,1710,3.623,0,0,0,0,
118,4064.62,4120,4065.13,3834.87,4333.33,4132.31,4551.79,4536.41,4279.49,3911.79,4216.41,4603.08,4384.1,4636.41,1690,1710,3.631,0,0,0,0,
119,4065.13,4121.03,4065.64,3845.13,4333.85,4137.95,4551.79,4534.87,4284.1,3911.79,4210.77,4601.54,4381.54,4637.95,1692,1712,3.638,0,0,0,0,
120,4065.13,4125.13,4065.13,3848.21,4343.08,4137.95,4554.87,4539.49,4295.9,3910.26,4216.41,4604.1,4384.62,4646.15,1693,1710,3.646,0,0,0,0,
121,4055.9,4122.05,4057.44,3832.31,4342.05,4137.95,4555.38,4540.51,4295.38,3910.77,4216.41,4600,4380,4635.9,1691,1711,3.654,0,0,0,0,
122,4054.87,4114.36,4050.26,3825.13,4338.46,4140.51,4554.36,4538.46,4290.77,3911.79,4212.31,4596.41,4376.41,4628.21,1693,1710,3.662,0,0,0,0,
123,4060,4105.13,4050.77,3831.28,4327.18,4138.97,4555.38,4543.08,4295.9,3911.28,4209.74,4595.38,4376.92,4631.79,1692,1709,3.67,0,0,0,0,
124,4057.95,4107.69,4051.28,3828.72,4321.54,4137.95,4556.41,4546.67,4302.05,3909.74,4209.74,4593.33,4376.92,4636.41,1693,1708,3.678,0,0,0,0,
125,4061.54,4120.51,4053.33,3830.26,4335.38,4139.49,4554.36,4539.49,4291.79,3908.21,4215.38,4601.03,4382.56,4642.05,1692,1708,3.685,0,0,0,0,
126,4061.03,4115.38,4051.79,3834.36,4336.92,4135.38,4550.77,4533.85,4277.44,3905.13,4214.87,4600,4382.05,4642.05,1692,1708,3.693,0,0,0,0,
127,4052.82,4106.15,4049.23,3832.31,4335.9,4137.44,4552.31,4537.44,4288.21,3907.18,4208.72,4589.23,4375.38,4636.92,1692,1709,3.701,0,0,0,0,
128,4055.9,4117.44,4052.31,3837.44,4348.21,4149.23,4557.95,4540.51,4301.03,3912.82,4212.82,4591.79,4377.44,4640.51,1692,1709,3.709,0,0,0,0,
0,4060.51,4124.62,4050.26,3839.49,4346.67,4143.08,4554.87,4535.9,4286.67,3910.26,4213.33,4595.38,4381.54,4640,1691,1709,3.717,0,0,0,0,
1,4055.9,4115.38,4044.62,3829.74,4338.97,4125.64,4541.54,4531.79,4274.87,3906.15,4201.03,4587.69,4377.95,4634.87,1691,1712,3.724,0,0,0,0,
2,4062.05,4119.49,4049.23,3832.31,4343.08,4129.74,4538.46,4536.92,4288.72,3908.72,4203.08,4591.28,4379.49,4643.59,1690,1714,3.732,0,0,0,0,
3,4077.44,4136.92,4060,3846.15,4345.64,4137.95,4543.59,4536.92,4292.82,3910.77,4214.87,4603.08,4387.69,4655.38,1691,1715,3.74,0,0,0,0,
4,4085.64,4143.59,4062.56,3846.15,4336.41,4128.21,4540.51,4523.59,4275.9,3905.64,4214.36,4600,4391.79,4661.03,1690,1715,3.748,0,0,0,0,
5,4103.59,4158.97,4068.72,3846.67,4337.44,4128.21,4542.05,4523.08,4278.46,3908.72,4217.95,4606.15,4402.56,4680.51,1690,1714,3.756,0,0,0,0,
6,4136.41,4181.54,4085.64,3867.18,4352.31,4141.54,4554.36,4538.97,4299.49,3915.38,4234.87,4627.69,4419.49,4712.82,1690,1714,3.764,0,0,0,0,
7,4160.51,4187.18,4095.38,3880,4350.77,4138.97,4553.33,4538.97,4297.44,3905.13,4235.38,4630.77,4421.03,4732.82,1691,1713,3.771,0,0,0,0,
8,4185.13,4198.46,4100,3875.38,4334.87,4128.21,4541.03,4524.1,4280,3891.28,4225.64,4629.23,4417.44,4752.31,1690,1710,3.785,0,0,0,0,
9,4235.38,4238.97,4120,3883.08,4341.03,4123.08,4539.49,4520.51,4272.31,3891.28,4236.41,4650.77,4431.28,4796.92,1690,1709,3.787,0,0,0,0,
10,4301.03,4280,4147.69,3909.23,4357.95,4118.97,4543.59,4524.1,4274.87,3904.1,4250.77,4674.36,4453.85,4850.26,1691,1707,3.795,0,0,0,0,
11,4341.54,4298.46,4160.51,3922.56,4348.21,4126.67,4542.05,4525.64,4285.13,3918.97,4248.72,4681.03,4458.46,4882.56,1690,1709,3.803,0,0,0,0,
12,4349.74,4304.62,4157.44,3925.13,4333.85,4137.44,4538.97,4521.03,4285.13,3914.36,4244.62,4682.56,4450.77,4896.92,1692,1709,3.81,0,0,0,0,
13,4348.21,4300.51,4158.46,3927.69,4334.36,4130.26,4537.95,4507.69,4255.9,3880,4237.44,4677.95,4445.13,4903.59,1691,1709,3.818,0,0,0,0,
14,4346.67,4298.46,4156.92,3919.49,4341.03,4121.54,4540.51,4505.64,4243.08,3868.21,4231.79,4667.69,4446.15,4903.08,1692,1711,3.827,0,0,0,0,
15,4334.36,4301.03,4145.13,3911.79,4356.92,4123.59,4541.54,4520,4266.67,3892.31,4237.95,4668.21,4452.31,4899.49,1692,1710,3.834,0,0,0,0,
16,4310.26,4288.21,4138.46,3909.74,4355.38,4123.08,4540.51,4525.13,4274.87,3892.82,4241.03,4668.21,4450.26,4882.05,1692,1711,3.842,0,0,0,0,
17,4287.69,4259.49,4136.41,3901.03,4329.23,4118.46,4539.49,4517.44,4262.05,3878.97,4232.31,4654.36,4443.08,4846.15,1692,1710,3.85,0,0,0,0,
18,4264.62,4238.97,4127.69,3895.38,4330.77,4118.46,4540.51,4523.08,4272.31,3897.95,4230.77,4646.15,4439.49,4818.46,1692,1710,3.858,0,0,0,0,
19,4237.95,4223.08,4117.44,3889.74,4344.62,4123.08,4546.67,4537.95,4291.28,3913.85,4236.41,4649.23,4437.44,4806.15,1692,1710,3.866,0,0,0,0,
20,4212.82,4204.1,4113.85,3876.41,4332.31,4131.28,4555.9,4534.36,4285.13,3898.97,4229.23,4645.64,4428.72,4786.15,1691,1712,3.874,0,0,0,0,
21,4190.77,4194.36,4105.64,3873.33,4338.46,4135.38,4552.31,4522.56,4273.33,3890.77,4218.97,4631.79,4418.97,4755.38,1692,1711,3.881,0,0,0,0,
22,4169.74,4188.72,4093.85,3874.87,4368.72,4134.36,4543.08,4522.56,4277.95,3901.54,4218.46,4620,4414.87,4733.85,1691,1713,3.889,0,0,0,0,
23,4151.28,4172.82,4086.15,3864.1,4358.46,4131.28,4543.59,4524.62,4281.54,3901.03,4218.46,4616.92,4411.79,4718.46,1692,1712,3.898,0,0,0,0,
24,4130.26,4151.79,4079.49,3852.31,4323.59,4125.13,4545.13,4525.64,4277.95,3890.26,4213.33,4612.82,4405.13,4700,1690,1712,3.904,0,0,0,0,
25,4110.26,4140.51,4075.9,3845.64,4334.36,4126.15,4544.62,4534.87,4284.1,3893.85,4210.77,4608.72,4398.46,4687.18,1691,1712,3.912,0,0,0,0,
26,4105.64,4136.41,4074.36,3844.62,4364.1,4136.41,4551.79,4540,4294.36,3908.72,4215.38,4612.31,4402.05,4684.1,1690,1712,3.921,0,0,0,0,
27,4103.08,4128.72,4069.23,3848.21,4355.9,4138.46,4556.92,4535.9,4293.33,3914.36,4215.9,4611.79,4404.1,4678.97,1690,1712,3.928,0,0,0,0,
28,4090.77,4121.03,4064.62,3846.67,4343.08,4133.33,4554.87,4537.95,4292.31,3910.77,4212.82,4606.15,4397.44,4671.28,1690,1712,3.936,0,0,0,0,
29,4081.03,4116.92,4067.18,3842.05,4350.26,4136.41,4554.36,4541.03,4294.36,3907.69,4212.31,4604.62,4396.41,4667.18,1691,1712,3.943,0,0,0,0,
30,4080,4111.79,4070.77,3844.62,4348.72,4134.36,4555.9,4540,4292.31,3911.28,4214.87,4606.67,4400,4666.67,1691,1711,3.951,0,0,0,0,
31,4075.9,4105.64,4067.18,3844.1,4332.82,4122.56,4553.85,4538.97,4285.13,3910.26,4215.38,4603.59,4397.95,4662.05,1691,1713,3.959,0,0,0,0,
32,4070.26,4104.1,4063.08,3835.38,4338.97,4121.03,4553.85,4539.49,4282.56,3900.51,4214.87,4603.59,4396.41,4652.82,1693,1712,3.967,0,0,0,0,
33,4065.64,4104.62,4061.03,3831.79,4354.87,4134.87,4555.9,4543.08,4285.13,3897.95,4215.9,4606.15,4400,4648.72,1692,1713,3.975,0,0,0,0,
34,4062.05,4105.13,4055.38,3833.33,4351.79,4143.08,4557.95,4549.23,4292.82,3908.72,4213.33,4599.49,4398.46,4648.72,1693,1712,3.983,0,0,0,0,
35,4061.03,4106.15,4050.77,3834.87,4354.36,4135.9,4558.46,4557.44,4307.69,3916.92,4213.33,4594.87,4396.92,4641.54,1693,1711,3.99,0,0,0,0,
36,4055.38,4104.1,4050.77,3834.36,4368.21,4136.92,4558.46,4557.44,4312.31,3913.33,4216.92,4596.92,4399.49,4635.38,1693,1712,3.998,0,0,0,0,
37,4043.08,4094.36,4043.59,3829.23,4353.33,4142.56,4555.9,4543.08,4296.92,3907.69,4207.18,4587.18,4393.85,4627.18,1693,1711,4.006,0,0,0,0,
38,4035.38,4082.56,4031.79,3824.62,4325.13,4136.41,4550.26,4533.33,4288.72,3906.67,4195.9,4572.82,4384.62,4614.36,1693,1711,4.014,0,0,0,0,
39,4038.97,4091.79,4034.87,3830.26,4346.67,4134.87,4549.74,4538.46,4303.59,3912.82,4208.21,4580,4392.82,4620,1693,1709,4.022,0,0,0,0,
40,4043.59,4109.23,4042.05,3838.46,4376.92,4142.56,4553.85,4542.05,4306.67,3918.46,4218.46,4590.77,4403.59,4634.36,1693,1710,4.03,0,0,0,0,
41,4037.44,4097.44,4037.44,3833.33,4354.36,4140.51,4551.28,4536.41,4293.85,3910.77,4203.59,4582.56,4391.79,4623.59,1692,1710,4.037,0,0,0,0,
42,4037.44,4086.15,4036.92,3827.69,4345.13,4135.9,4547.69,4535.9,4294.36,3910.26,4197.95,4580.51,4386.67,4612.31,1692,1711,4.045,0,0,0,0,
43,4041.03,4093.33,4046.67,3828.21,4359.49,4140.51,4549.23,4530.77,4291.79,3911.28,4205.64,4588.21,4396.92,4617.44,1693,1710,4.054,0,0,0,0,
44,4035.9,4087.69,4048.72,3829.74,4349.23,4139.49,4550.26,4519.49,4276.41,3900,4201.54,4585.64,4391.28,4620,1691,1712,4.061,0,0,0,0,
45,4035.38,4081.03,4045.13,3832.82,4346.67,4134.36,4551.28,4527.18,4274.87,3903.08,4200,4585.64,4385.64,4624.62,1692,1712,4.069,0,0,0,0,
46,4037.44,4090.77,4043.59,3830.26,4358.46,4137.44,4554.36,4535.38,4283.59,3913.85,4205.13,4585.13,4394.36,4625.13,1691,1711,4.077,0,0,0,0,
47,4030.77,4090.77,4040.51,3827.18,4357.95,4140.51,4554.87,4526.15,4279.49,3902.05,4200.51,4575.38,4390.26,4607.18,1691,1712,4.084,0,0,0,0,
48,4033.85,4089.74,4043.59,3833.85,4362.05,4138.97,4551.79,4526.15,4278.97,3894.36,4197.95,4577.44,4383.59,4603.08,1691,1709,4.092,0,0,0,0,
49,4047.18,4095.9,4051.28,3839.49,4354.36,4135.9,4552.82,4537.95,4285.64,3905.13,4204.62,4592.82,4396.92,4619.49,1690,1711,4.104,0,0,0,0,
50,4037.95,4082.05,4046.15,3829.23,4314.36,4135.38,4555.9,4542.56,4287.69,3904.62,4205.64,4590.26,4395.38,4613.85,1692,1710,4.108,0,0,0,0,
51,4017.95,4065.64,4035.9,3813.85,4306.15,4134.87,4549.74,4533.85,4280.51,3893.33,4198.97,4577.95,4376.92,4594.87,1691,1708,4.116,0,0,0,0,
52,4024.62,4078.97,4041.03,3818.97,4353.33,4133.33,4542.05,4523.08,4268.21,3894.36,4196.41,4578.97,4380,4603.08,1692,1709,4.124,0,0,0,0,
53,4041.54,4100,4053.33,3841.54,4378.97,4135.38,4549.23,4529.23,4269.74,3906.15,4208.72,4592.82,4397.44,4628.21,1692,1709,4.132,0,0,0,0,
54,4041.54,4096.41,4056.41,3844.1,4361.54,4141.03,4558.46,4537.44,4279.49,3916.92,4220,4601.03,4401.54,4630.26,1692,1709,4.14,0,0,0,0,
55,4032.31,4081.54,4051.28,3827.18,4352.82,4141.54,4552.82,4527.18,4275.38,3912.82,4207.18,4593.85,4391.28,4614.87,1692,1711,4.147,0,0,0,0,
56,4035.38,4085.64,4051.28,3832.31,4358.97,4137.95,4551.79,4525.13,4273.85,3905.64,4201.03,4591.28,4392.31,4618.46,1692,1711,4.155,0,0,0,0,
57,4045.13,4095.9,4054.87,3842.05,4343.59,4137.44,4554.87,4536.41,4286.15,3912.31,4215.38,4600.51,4404.1,4634.36,1691,1713,4.164,0,0,0,0,
58,4045.13,4095.9,4051.28,3832.31,4341.54,4138.97,4546.15,4534.36,4291.79,3915.38,4218.46,4602.56,4408.72,4637.95,1692,1713,4.17,0,0,0,0,
59,4044.62,4099.49,4051.28,3835.38,4369.74,4140.51,4540.51,4535.9,4297.95,3912.31,4215.9,4601.54,4409.23,4634.87,1691,1713,4.178,0,0,0,0,
60,4042.56,4096.92,4054.36,3844.1,4363.08,4135.9,4542.05,4541.03,4296.92,3910.77,4217.44,4600,4407.18,4628.72,1691,1711,4.186,0,0,0,0,
61,4032.82,4084.1,4046.67,3830.26,4338.46,4131.28,4537.95,4528.72,4278.46,3910.77,4207.69,4592.31,4399.49,4617.95,1690,1710,4.194,0,0,0,0,
62,4030.77,4087.69,4041.54,3828.72,4351.28,4146.15,4543.08,4528.21,4283.59,3924.1,4201.54,4590.77,4395.9,4616.92,1690,1708,4.202,0,0,0,0,
63,4036.92,4097.44,4045.64,3841.03,4361.03,4157.95,4556.92,4545.13,4306.67,3930.26,4209.74,4595.9,4400.51,4623.59,1690,1708,4.209,0,0,0,0,
64,4029.74,4081.54,4041.54,3825.13,4347.69,4143.08,4549.23,4538.97,4299.49,3913.85,4205.64,4587.18,4395.9,4616.41,1691,1708,4.217,0,0,0,0,
65,4015.9,4068.21,4030.77,3813.33,4354.36,4138.46,4534.87,4523.08,4281.54,3905.64,4194.87,4578.97,4385.64,4604.62,1690,1708,4.225,0,0,0,0,
66,4021.54,4081.03,4037.95,3833.33,4371.79,4151.28,4544.62,4533.33,4286.67,3912.82,4206.15,4588.21,4391.79,4608.72,1691,1710,4.234,0,0,0,0,
67,4031.28,4082.05,4050.26,3835.38,4355.38,4136.92,4548.72,4541.54,4289.23,3909.74,4215.9,4593.85,4396.92,4615.38,1692,1710,4.247,0,0,0,0,
68,4025.13,4066.67,4044.62,3817.95,4326.15,4119.49,4537.95,4529.74,4281.03,3907.69,4206.15,4587.18,4387.69,4615.9,1691,1711,4.25,0,0,0,0,
69,4017.44,4065.13,4036.92,3820.51,4329.74,4133.85,4541.54,4526.15,4277.95,3911.79,4196.92,4583.08,4382.05,4614.36,1692,1712,4.256,0,0,0,0,
70,4021.54,4077.95,4041.54,3833.85,4360.51,4144.1,4553.33,4533.85,4277.95,3906.15,4201.03,4584.62,4391.79,4614.36,1691,1714,4.264,0,0,0,0,
71,4027.69,4088.72,4048.72,3840.51,4374.36,4141.03,4556.92,4538.97,4288.21,3911.28,4212.82,4593.85,4403.59,4621.03,1692,1714,4.272,0,0,0,0,
72,4029.23,4090.77,4049.74,3841.03,4360,4141.03,4552.31,4539.49,4297.95,3924.62,4216.92,4601.03,4401.03,4624.62,1691,1712,4.286,0,0,0,0,
73,4035.9,4088.21,4052.82,3833.33,4355.38,4138.97,4547.18,4539.49,4300,3920,4215.9,4601.54,4395.9,4623.08,1691,1708,4.289,0,0,0,0,
74,4039.49,4082.56,4054.87,3831.79,4360,4138.97,4550.77,4542.56,4301.54,3912.82,4216.41,4598.97,4398.46,4623.08,1690,1706,4.295,0,0,0,0,
75,4026.67,4074.36,4046.15,3836.92,4350.26,4144.62,4554.36,4544.1,4303.08,3914.87,4209.74,4593.33,4394.87,4621.03,1691,1705,4.303,0,0,0,0,
76,4010.77,4062.05,4033.33,3827.18,4331.79,4139.49,4542.56,4529.23,4284.62,3902.05,4188.72,4577.95,4372.31,4604.1,1691,1706,4.311,0,0,0,0,
77,4011.28,4057.44,4029.23,3815.38,4331.28,4130.26,4534.36,4513.85,4259.49,3885.13,4180.51,4568.21,4360.51,4590.26,1691,1708,4.319,0,0,0,0,
78,4025.13,4076.92,4039.49,3835.38,4357.95,4136.92,4543.08,4522.56,4268.72,3899.49,4199.49,4581.54,4383.08,4604.62,1692,1709,4.327,0,0,0,0,
79,4029.74,4079.49,4047.69,3839.49,4345.13,4134.87,4543.59,4527.69,4282.05,3914.36,4206.67,4589.74,4393.33,4617.44,1691,1712,4.335,0,0,0,0,
80,4025.13,4053.85,4050.26,3811.28,4310.77,4120.51,4537.44,4521.54,4274.36,3904.62,4194.87,4582.05,4377.44,4613.33,1692,1711,4.342,0,0,0,0,
81,4030.77,4071.79,4054.36,3829.74,4355.9,4130.77,4546.15,4531.79,4280.51,3907.18,4204.62,4591.28,4387.69,4620,1692,1712,4.351,0,0,0,0,
82,4041.54,4111.28,4055.38,3867.18,4393.33,4153.33,4557.44,4543.59,4296.41,3921.03,4221.54,4606.15,4408.72,4626.67,1692,1713,4.359,0,0,0,0,
83,4040,4084.1,4050.77,3849.23,4344.62,4144.62,4550.26,4530.26,4287.18,3906.67,4211.28,4595.38,4390.77,4613.85,1691,1713,4.366,0,0,0,0,
84,4034.87,4053.85,4052.82,3834.87,4326.67,4127.69,4541.54,4519.49,4268.72,3887.69,4195.9,4586.15,4370.77,4607.69,1692,1712,4.374,0,0,0,0,
85,4030.77,4084.1,4059.49,3849.74,4365.13,4143.08,4549.23,4534.36,4281.54,3903.08,4201.03,4595.38,4385.64,4622.05,1691,1711,4.382,0,0,0,0,
86,4026.15,4095.9,4053.85,3837.95,4367.18,4152.82,4559.49,4547.69,4305.64,3923.59,4208.72,4596.92,4394.87,4625.13,1692,1710,4.389,0,0,0,0,
87,4025.64,4045.64,4045.13,3809.74,4316.92,4135.9,4550.26,4534.87,4294.36,3909.74,4195.38,4583.08,4367.69,4597.95,1691,1707,4.397,0,0,0,0,
88,4026.15,4022.56,4043.08,3817.44,4284.1,4132.31,4540,4518.46,4264.1,3889.74,4186.15,4575.38,4353.33,4585.64,1690,1708,4.405,0,0,0,0,
89,4032.31,4058.97,4044.1,3840,4312.31,4141.03,4545.13,4526.15,4272.82,3900,4201.03,4588.21,4377.95,4612.82,1692,1706,4.414,0,0,0,0,
90,4043.59,4080.51,4051.79,3827.18,4341.03,4136.41,4548.21,4541.03,4297.95,3911.79,4209.23,4599.49,4390.77,4626.67,1691,1708,4.421,0,0,0,0,
91,4041.03,4073.85,4056.92,3812.31,4332.31,4133.85,4547.69,4539.49,4294.36,3909.23,4205.13,4595.38,4384.1,4615.38,1692,1709,4.429,0,0,0,0,
92,4033.33,4084.62,4047.69,3853.85,4331.79,4140,4551.79,4535.38,4285.64,3908.21,4211.79,4591.79,4391.79,4613.85,1691,1710,4.437,0,0,0,0,
93,4033.85,4101.54,4040.51,3877.44,4343.59,4139.49,4553.33,4534.87,4285.64,3902.56,4211.28,4591.28,4397.95,4609.74,1693,1711,4.444,0,0,0,0,
94,4033.33,4091.79,4044.1,3834.87,4346.15,4140,4552.31,4528.72,4285.64,3901.03,4202.05,4589.23,4391.79,4605.13,1692,1711,4.453,0,0,0,0,
95,4034.36,4056.41,4046.67,3821.54,4327.18,4140.51,4550.77,4523.08,4284.62,3902.05,4202.05,4589.23,4387.18,4615.9,1692,1711,4.46,0,0,0,0,
96,4031.28,4037.44,4040.51,3853.33,4283.59,4131.79,4541.03,4518.97,4275.9,3881.54,4189.23,4575.9,4371.79,4600,1692,1711,4.469,0,0,0,0,
97,4015.38,4088.72,4023.59,3871.28,4295.9,4139.49,4536.41,4524.62,4279.49,3876.92,4179.49,4563.08,4362.56,4573.85,1692,1711,4.476,0,0,0,0,
98,4012.31,4143.59,4013.85,3864.1,4371.79,4158.46,4551.28,4543.59,4305.13,3912.31,4203.59,4576.92,4386.67,4591.28,1692,1709,4.487,0,0,0,0,
99,4025.13,4087.69,4031.79,3830.26,4349.23,4147.18,4556.92,4546.15,4303.59,3914.36,4205.64,4582.56,4387.18,4606.15,1691,1709,4.491,0,0,0,0,
100,4022.56,4041.54,4043.59,3827.18,4282.05,4130.26,4549.23,4533.33,4281.03,3883.59,4184.1,4572.82,4358.97,4593.85,1692,1706,4.499,0,0,0,0,
101,4015.38,4107.18,4027.69,3876.41,4323.59,4141.54,4551.28,4537.44,4291.28,3889.74,4193.33,4581.03,4368.21,4599.49,1690,1708,4.507,0,0,0,0,
102,4039.49,4120,4035.38,3887.18,4345.64,4143.08,4551.79,4548.21,4307.18,3909.23,4210.26,4593.85,4394.87,4616.41,1691,1708,4.516,0,0,0,0,
103,4058.46,4046.15,4061.03,3856.92,4269.23,4130.77,4546.15,4539.49,4288.21,3898.97,4202.05,4591.79,4387.18,4609.74,1690,1709,4.523,0,0,0,0,
104,4034.36,4071.28,4045.13,3862.56,4258.97,4134.36,4546.15,4534.36,4277.44,3889.23,4196.41,4585.64,4377.44,4593.85,1690,1709,4.531,0,0,0,0,
105,4008.72,4159.49,4011.79,3898.97,4349.74,4139.49,4550.77,4549.74,4302.56,3908.21,4211.28,4584.62,4398.46,4602.56,1690,1710,4.539,0,0,0,0,
106,4021.54,4158.46,4016.92,3929.23,4370.77,4137.44,4550.26,4557.95,4316.92,3926.67,4221.03,4587.18,4413.33,4616.92,1691,1710,4.546,0,0,0,0,
107,4041.03,4098.46,4042.56,3887.18,4289.74,4131.79,4546.15,4537.95,4289.23,3903.59,4205.64,4586.67,4392.31,4604.62,1691,1710,4.555,0,0,0,0,
108,4048.21,4044.1,4059.49,3822.05,4243.59,4119.49,4537.95,4515.9,4260,3864.62,4183.59,4581.54,4358.46,4595.9,1692,1712,4.563,0,0,0,0,
109,4045.13,4046.67,4051.28,3869.74,4269.74,4122.05,4535.38,4518.97,4262.56,3865.64,4183.08,4580.51,4350.77,4604.1,1692,1711,4.569,0,0,0,0,
110,4018.97,4100.51,4022.05,3924.1,4294.87,4136.92,4539.49,4523.59,4268.72,3881.54,4186.15,4569.23,4365.13,4588.21,1694,1710,4.577,0,0,0,0,
111,4024.62,4106.15,4024.62,3873.33,4292.82,4132.82,4536.92,4522.56,4269.23,3877.95,4180.51,4565.13,4364.1,4577.95,1693,1708,4.591,0,0,0,0,
112,4061.54,4060,4061.54,3851.28,4286.67,4132.31,4541.54,4537.44,4288.21,3884.62,4188.21,4589.74,4353.85,4616.92,1692,1708,4.594,0,0,0,0,
113,4063.08,4080,4064.62,3926.67,4315.38,4143.59,4553.85,4563.08,4317.44,3916.41,4210.77,4607.18,4383.08,4642.05,1691,1707,4.601,0,0,0,0,
114,4056.92,4120,4046.67,3953.85,4316.41,4136.41,4547.69,4561.03,4311.28,3921.03,4217.95,4594.36,4410.26,4609.74,1692,1708,4.609,0,0,0,0,
115,4052.82,4081.03,4039.49,3885.64,4225.13,4113.33,4526.15,4525.64,4268.21,3881.03,4189.23,4572.82,4361.54,4579.49,1690,1709,4.616,0,0,0,0,
116,4026.67,4043.59,4025.64,3881.54,4188.21,4107.69,4532.31,4515.9,4260,3875.38,4174.87,4571.79,4333.85,4596.92,1690,1711,4.625,0,0,0,0,
117,4023.08,4067.69,4025.64,4003.59,4290.26,4136.41,4560,4550.77,4299.49,3918.97,4207.18,4594.36,4387.18,4621.54,1689,1710,4.632,0,0,0,0,
118,4064.1,4104.62,4060.51,4014.36,4332.31,4162.56,4561.03,4561.03,4310.77,3926.15,4225.64,4614.87,4403.59,4625.64,1688,1714,4.64,0,0,0,0,
119,4063.08,4097.44,4065.13,3853.33,4228.21,4143.59,4541.54,4521.03,4270.77,3881.03,4191.79,4596.92,4348.21,4608.21,1688,1713,4.648,0,0,0,0,
120,4002.05,4075.38,4004.62,3867.18,4178.97,4111.28,4526.15,4491.79,4239.49,3852.82,4156.92,4551.79,4323.08,4569.74,1687,1714,4.655,0,0,0,0,
121,3983.59,4110.77,3977.44,4031.79,4244.1,4121.54,4528.72,4506.15,4252.82,3862.56,4164.1,4540.51,4347.69,4557.95,1689,1714,4.663,0,0,0,0,
122,4041.03,4164.1,4032.82,4023.08,4299.49,4144.62,4547.18,4532.31,4284.62,3885.13,4197.95,4580.51,4369.74,4615.38,1688,1714,4.671,0,0,0,0,
123,4087.69,4187.18,4072.82,3938.46,4311.79,4145.13,4557.44,4545.13,4301.03,3899.49,4214.87,4616.41,4374.87,4656.92,1689,1713,4.679,0,0,0,0,
124,4057.44,4204.62,4045.13,3970.26,4283.08,4136.41,4544.1,4539.49,4288.72,3886.15,4189.23,4597.95,4358.46,4620.51,1689,1711,4.687,0,0,0,0,
125,4021.54,4231.28,4019.49,4016.41,4251.28,4132.82,4534.36,4535.9,4285.64,3879.49,4182.56,4576.41,4358.97,4596.41,1691,1709,4.695,0,0,0,0,
126,4042.56,4254.36,4027.18,4036.92,4288.72,4145.64,4542.05,4543.59,4303.08,3895.38,4213.33,4598.97,4370.26,4622.56,1691,1707,4.702,0,0,0,0,
127,4063.08,4286.67,4028.72,4065.64,4333.33,4150.77,4541.54,4544.62,4305.64,3899.49,4215.9,4614.36,4369.74,4630.77,1692,1708,4.71,0,0,0,0,
128,4044.62,4333.85,4017.44,4062.05,4314.36,4137.44,4538.46,4541.03,4297.95,3902.05,4202.56,4590.26,4395.9,4610.26,1693,1706,4.719,0,0,0,0,
0,4031.79,4345.64,4014.87,4058.46,4293.85,4125.64,4540.51,4533.85,4292.31,3905.13,4213.33,4574.36,4416.41,4602.05,1691,1709,4.726,0,0,0,0,
1,4054.87,4303.08,4031.28,4062.05,4290.77,4121.54,4539.49,4518.97,4272.31,3877.44,4202.56,4586.15,4373.85,4609.23,1692,1709,4.734,0,0,0,0,
2,4063.59,4302.05,4040,4067.18,4273.85,4122.56,4540.51,4510.77,4253.85,3849.74,4167.69,4580.51,4333.33,4617.95,1691,1710,4.741,0,0,0,0,
3,4025.13,4347.18,4006.15,4117.44,4273.33,4116.92,4537.44,4503.59,4248.21,3843.08,4152.82,4555.38,4317.44,4605.13,1692,1710,4.749,0,0,0,0,
4,4003.59,4332.82,3984.1,4121.54,4270.26,4115.38,4534.36,4496.92,4242.56,3834.87,4147.69,4544.62,4300,4561.03,1692,1710,4.757,0,0,0,0,
5,4008.72,4265.64,4001.54,4010.26,4214.87,4111.28,4528.72,4495.9,4238.46,3822.05,4142.56,4532.82,4310.77,4527.69,1691,1711,4.766,0,0,0,0,
6,3956.41,4267.69,3958.46,3964.1,4177.95,4065.64,4479.49,4461.03,4207.18,3784.1,4117.95,4486.15,4286.67,4501.03,1690,1710,4.774,0,0,0,0,
7,3877.44,4299.49,3865.13,4044.62,4195.38,3991.79,4403.08,4395.38,4147.69,3731.28,4049.23,4435.9,4206.67,4449.23,1690,1710,4.781,0,0,0,0,
8,3864.62,4235.9,3852.82,4047.69,4149.23,3967.69,4386.15,4372.82,4124.62,3712.31,4001.03,4426.15,4170.26,4424.62,1690,1708,4.789,0,0,0,0,
9,3888.72,4155.38,3897.44,3921.54,4062.56,3976.41,4404.62,4387.69,4138.97,3717.44,4029.23,4435.9,4186.15,4453.33,1689,1708,4.796,0,0,0,0,
10,3871.28,4165.13,3880,3868.72,4021.54,3960,4379.49,4363.08,4115.38,3688.72,4028.72,4416.41,4167.18,4443.08,1689,1706,4.805,0,0,0,0,
11,3850.26,4248.72,3839.49,3975.38,4070.77,3984.1,4372.31,4348.72,4095.38,3676.41,3983.08,4415.9,4131.28,4417.44,1688,1707,4.812,0,0,0,0,
12,3876.41,4305.13,3863.08,4054.36,4163.59,4021.03,4406.15,4386.15,4134.36,3722.56,4007.18,4461.54,4143.08,4468.72,1690,1707,4.82,0,0,0,0,
13,3873.85,4228.21,3874.87,3970.26,4126.67,3973.33,4394.36,4376.92,4134.36,3714.36,4007.69,4446.15,4140,4474.36,1689,1708,4.828,0,0,0,0,
14,3836.41,4197.95,3842.05,3903.08,4074.36,3948.72,4380.51,4349.74,4107.18,3679.49,3968.21,4384.62,4160,4389.74,1691,1709,4.835,0,0,0,0,
15,3851.28,4334.36,3835.38,3981.03,4208.21,4011.28,4411.79,4395.9,4148.21,3732.31,4024.62,4400.51,4248.21,4381.03,1691,1709,4.844,0,0,0,0,
16,3893.85,4361.54,3854.87,4046.15,4300.51,4026.15,4411.28,4424.1,4183.08,3776.41,4085.64,4446.15,4254.87,4465.64,1691,1710,4.851,0,0,0,0,
17,3875.38,4232.31,3847.69,4027.69,4158.97,3993.85,4387.69,4380.51,4144.62,3725.13,4041.54,4418.46,4160.51,4467.18,1692,1710,4.859,0,0,0,0,
18,3843.08,4234.36,3842.05,3964.62,4071.79,4001.54,4398.46,4366.67,4117.95,3686.15,3990.26,4393.33,4132.82,4415.9,1692,1710,4.868,0,0,0,0,
19,3847.18,4299.49,3853.85,3880.51,4124.62,3994.36,4400,4380,4124.1,3697.44,3975.9,4409.74,4162.05,4419.49,1693,1710,4.874,0,0,0,0,
20,3838.46,4260.51,3838.46,3921.54,4143.08,3974.36,4384.62,4367.69,4122.05,3705.64,3990.77,4402.05,4166.67,4411.79,1693,1711,4.882,0,0,0,0,
21,3821.03,4270.26,3812.82,4056.92,4195.9,3990.26,4386.15,4369.74,4136.92,3726.67,4046.15,4383.08,4204.62,4382.05,1693,1710,4.89,0,0,0,0,
22,3834.87,4300,3818.46,4010.26,4215.38,3983.59,4379.49,4370.26,4131.79,3715.38,4032.31,4391.28,4174.36,4391.79,1692,1710,4.898,0,0,0,0,
23,3848.21,4272.82,3834.36,3907.18,4152.31,3981.03,4381.54,4355.9,4103.08,3684.62,3984.1,4409.74,4105.64,4417.95,1692,1709,4.906,0,0,0,0,
24,3840,4294.36,3832.82,3995.9,4191.79,4007.18,4406.67,4370.26,4122.56,3715.9,4031.28,4411.79,4162.05,4422.05,1691,1709,4.914,0,0,0,0,
25,3845.13,4323.59,3831.79,4078.97,4272.82,3987.69,4398.46,4383.08,4146.67,3738.97,4056.41,4414.36,4185.64,4433.85,1692,1709,4.921,0,0,0,0,
26,3850.77,4321.54,3835.9,4014.36,4251.28,3955.9,4369.74,4366.15,4125.64,3712.82,4012.31,4412.82,4155.9,4433.85,1691,1709,4.929,0,0,0,0,
27,3838.97,4344.1,3838.46,3965.64,4256.92,3973.33,4384.62,4370.77,4124.1,3716.92,4018.97,4393.33,4235.9,4403.59,1691,1711,4.938,0,0,0,0,
28,3857.44,4332.82,3851.28,4029.23,4316.41,3977.95,4401.54,4393.33,4149.74,3737.44,4049.74,4405.64,4251.79,4418.46,1691,1710,4.945,0,0,0,0,
29,3876.41,4245.64,3859.49,4059.49,4228.21,3968.72,4386.15,4378.46,4132.31,3705.13,4026.15,4429.74,4118.46,4431.79,1690,1711,4.953,0,0,0,0,
30,3846.67,4235.9,3848.72,3980.51,4123.59,4008.72,4404.62,4370.26,4118.97,3694.36,4020.51,4416.41,4145.13,4409.74,1691,1710,4.961,0,0,0,0,
31,3814.36,4331.28,3829.23,3960.51,4215.38,4010.77,4424.62,4394.36,4144.62,3729.23,4040.51,4396.92,4266.67,4393.33,1690,1711,4.968,0,0,0,0,
32,3839.49,4342.05,3839.49,4067.18,4302.56,3943.59,4387.69,4385.64,4136.92,3713.85,4009.23,4420,4162.05,4405.13,1690,1710,4.976,0,0,0,0,
33,3877.95,4272.31,3869.23,4105.13,4287.69,3946.67,4376.92,4372.82,4124.1,3698.46,3997.95,4441.03,4085.64,4443.59,1690,1709,4.984,0,0,0,0,
34,3871.79,4270.26,3862.05,4038.46,4299.49,3993.85,4403.08,4390.26,4145.64,3735.38,4047.69,4418.97,4213.33,4455.38,1690,1708,4.992,0,0,0,0,
35,3846.67,4334.87,3827.18,4068.21,4331.28,3987.69,4396.92,4389.23,4149.23,3744.1,4061.54,4397.95,4246.67,4417.95,1690,1708,5,0,0,0,0,
36,3838.46,4365.13,3823.59,4122.05,4329.23,3976.92,4384.1,4376.92,4137.44,3727.18,4035.9,4404.62,4190.26,4377.95,1691,1707,5.007,0,0,0,0,
37,3831.28,4318.46,3835.9,4035.9,4268.72,3985.13,4397.44,4375.38,4132.31,3724.62,4035.9,4400,4223.59,4381.03,1690,1709,5.015,0,0,0,0,
38,3840.51,4255.38,3843.59,3995.38,4195.9,3971.28,4405.13,4366.15,4118.46,3707.69,4035.9,4396.41,4208.72,4413.33,1690,1710,5.023,0,0,0,0,
39,3874.87,4264.62,3862.56,4105.64,4261.54,3978.97,4405.13,4375.9,4125.64,3703.59,4026.67,4425.13,4158.46,4434.87,1690,1711,5.032,0,0,0,0,
40,3871.28,4321.03,3857.95,4143.08,4371.79,3993.85,4402.05,4400.51,4152.31,3732.31,4045.13,4444.62,4181.54,4445.13,1691,1710,5.039,0,0,0,0,
41,3822.05,4273.85,3831.79,4022.05,4257.95,3957.44,4389.23,4371.79,4122.56,3708.21,4023.08,4412.31,4139.49,4411.28,1690,1712,5.047,0,0,0,0,
42,3814.36,4246.67,3830.77,4018.97,4189.23,3957.44,4394.36,4349.74,4095.9,3685.64,3981.03,4394.87,4121.03,4380,1692,1711,5.054,0,0,0,0,
43,3844.62,4353.33,3837.95,4161.03,4353.33,4007.69,4410.77,4389.23,4140,3737.95,4011.79,4415.9,4231.79,4396.92,1690,1709,5.062,0,0,0,0,
44,3854.36,4370.26,3837.95,4168.72,4388.21,4017.95,4416.92,4410.26,4167.69,3764.62,4060.51,4421.03,4252.82,4419.49,1691,1710,5.071,0,0,0,0,
45,3848.72,4242.05,3855.38,4061.54,4282.56,3997.44,4417.44,4389.74,4145.13,3732.82,4061.03,4404.62,4196.41,4408.72,1691,1707,5.078,0,0,0,0,
46,3862.05,4233.33,3870.77,4086.67,4315.9,3987.69,4412.82,4389.74,4142.56,3726.15,4051.28,4413.33,4198.46,4411.28,1690,1708,5.086,0,0,0,0,
47,3872.82,4362.05,3858.97,4161.03,4367.18,3986.67,4409.23,4405.64,4162.05,3740.51,4048.72,4441.03,4177.44,4451.28,1691,1708,5.094,0,0,0,0,
48,3840.51,4322.56,3839.49,4094.36,4272.31,3978.97,4400,4383.08,4143.59,3725.64,4030.77,4415.9,4166.67,4422.05,1690,1709,5.102,0,0,0,0,
49,3830.77,4183.59,3848.72,4020.51,4200.51,3977.44,4398.46,4365.13,4122.56,3722.56,4035.9,4389.23,4208.21,4378.46,1691,1709,5.109,0,0,0,0,
50,3861.54,4250.26,3869.23,4078.97,4252.82,4001.03,4415.9,4390.26,4145.64,3752.31,4069.74,4422.56,4218.46,4410.77,1690,1710,5.117,0,0,0,0,
51,3861.54,4392.31,3861.54,4163.59,4336.41,4017.95,4424.62,4408.21,4164.62,3765.13,4085.13,4446.15,4224.1,4439.49,1690,1711,5.126,0,0,0,0,
52,3861.03,4323.59,3864.1,4186.67,4331.79,3993.33,4414.87,4396.41,4148.21,3745.64,4068.72,4432.82,4234.87,4419.49,1690,1712,5.133,0,0,0,0,
53,3882.56,4209.74,3886.15,4141.03,4268.21,3968.72,4410.77,4387.69,4135.38,3733.85,4052.82,4428.72,4218.97,4412.31,1692,1711,5.141,0,0,0,0,
54,3895.38,4276.92,3900,4070.77,4291.28,4002.05,4427.18,4406.15,4155.38,3754.36,4059.49,4459.49,4208.72,4468.21,1690,1709,5.149,0,0,0,0,
55,3878.46,4313.85,3885.64,4091.28,4319.49,4014.87,4422.56,4405.64,4153.33,3748.21,4050.26,4459.49,4192.82,4488.72,1692,1709,5.156,0,0,0,0,
56,3852.31,4217.95,3851.79,4138.97,4240,3966.15,4397.95,4373.85,4116.41,3710.26,4023.59,4413.33,4165.64,4417.95,1692,1708,5.164,0,0,0,0,
57,3865.13,4180,3870.26,4084.62,4194.87,3970.26,4417.95,4380,4123.08,3722.05,4042.56,4403.08,4192.31,4368.21,1691,1710,5.172,0,0,0,0,
58,3894.87,4275.9,3913.33,4078.97,4293.33,4023.59,4449.74,4424.62,4170.26,3762.05,4062.05,4452.82,4221.54,4420.51,1691,1709,5.181,0,0,0,0,
59,3879.49,4337.95,3890.77,4166.67,4346.67,4022.05,4434.87,4430.26,4180.51,3754.87,4030.26,4467.18,4211.28,4468.21,1690,1710,5.188,0,0,0,0,
60,3853.33,4282.56,3849.23,4196.41,4274.87,3995.9,4415.38,4399.49,4158.46,3738.46,4029.74,4424.1,4224.62,4427.69,1691,1711,5.195,0,0,0,0,
61,3881.54,4247.69,3875.38,4139.49,4260,4006.67,4429.23,4399.49,4156.92,3757.95,4077.44,4426.15,4238.46,4408.72,1690,1710,5.204,0,0,0,0,
62,3907.18,4275.9,3909.74,4077.95,4304.1,3994.36,4426.67,4409.23,4157.95,3763.59,4085.13,4462.05,4217.44,4458.46,1691,1711,5.211,0,0,0,0,
63,3883.08,4295.38,3891.79,4073.85,4291.28,3971.28,4410.26,4398.97,4143.08,3747.69,4065.64,4460,4203.08,4485.64,1689,1711,5.219,0,0,0,0,
64,3887.69,4278.46,3893.33,4167.18,4298.97,4027.18,4435.9,4415.9,4158.46,3764.62,4083.59,4458.97,4226.15,4465.13,1691,1712,5.227,0,0,0,0,
65,3917.95,4248.72,3914.36,4235.38,4321.03,4055.38,4458.46,4440.51,4184.1,3783.08,4083.59,4474.36,4246.67,4445.13,1690,1712,5.234,0,0,0,0,
66,3897.44,4233.85,3896.41,4130.77,4243.59,3984.62,4428.72,4408.72,4154.36,3748.72,4035.9,4449.74,4218.97,4437.44,1691,1715,5.242,0,0,0,0,
67,3864.62,4268.21,3877.95,4053.33,4228.72,3968.21,4416.41,4382.56,4130.26,3730.77,4044.1,4428.72,4198.46,4440,1692,1713,5.252,0,0,0,0,
68,3875.9,4282.56,3891.28,4150.77,4322.05,4028.21,4449.23,4417.44,4161.54,3754.87,4074.87,4458.97,4220.51,4442.05,1691,1714,5.259,0,0,0,0,
69,3902.56,4217.44,3904.1,4194.87,4302.05,4027.69,4460,4434.87,4175.38,3751.28,4045.64,4463.08,4241.54,4431.79,1692,1710,5.266,0,0,0,0,
70,3918.46,4192.82,3906.15,4100.51,4230.26,3989.74,4447.69,4410.26,4160.51,3737.44,4034.87,4439.49,4240,4444.62,1690,1708,5.274,0,0,0,0,
71,3914.87,4242.05,3907.18,4075.38,4274.87,4002.56,4453.33,4405.64,4166.15,3756.41,4076.92,4450.77,4225.13,4467.69,1692,1707,5.281,0,0,0,0,
72,3875.9,4256.92,3894.36,4146.15,4293.33,4029.74,4455.9,4408.72,4157.95,3758.97,4080,4461.03,4208.21,4448.21,1691,1706,5.289,0,0,0,0,
73,3865.13,4272.31,3878.97,4186.67,4262.05,4039.49,4444.62,4404.62,4147.18,3751.28,4070.26,4450.77,4222.05,4451.28,1692,1707,5.297,0,0,0,0,
74,3928.72,4291.28,3904.1,4191.79,4305.64,4022.56,4443.08,4421.03,4172.31,3771.28,4090.77,4462.56,4272.82,4480.51,1691,1709,5.305,0,0,0,0,
75,3950.77,4249.23,3933.33,4162.56,4337.95,3990.77,4447.69,4431.28,4181.03,3775.9,4088.21,4473.85,4296.92,4456.41,1692,1709,5.313,0,0,0,0,
76,3914.36,4238.97,3928.21,4149.23,4329.74,4001.54,4458.97,4428.21,4173.85,3769.23,4089.23,4479.49,4265.64,4454.87,1692,1710,5.327,0,0,0,0,
77,3906.67,4296.41,3911.28,4189.23,4338.46,4025.64,4465.13,4432.82,4181.54,3777.95,4105.13,4480.51,4257.44,4478.46,1691,1711,5.33,0,0,0,0,
78,3916.41,4288.21,3903.59,4190.77,4321.03,4009.23,4452.82,4424.1,4171.28,3765.64,4090.26,4460,4275.38,4456.92,1691,1708,5.337,0,0,0,0,
79,3905.13,4205.13,3909.74,4128.72,4279.49,4008.72,4451.79,4412.31,4158.97,3750.77,4071.28,4465.64,4244.1,4458.46,1691,1711,5.344,0,0,0,0,
80,3912.82,4182.56,3927.18,4104.1,4291.28,4036.41,4464.62,4425.13,4180,3768.72,4073.85,4494.87,4210.26,4497.44,1692,1710,5.352,0,0,0,0,
81,3932.31,4218.97,3930.77,4121.03,4293.33,4028.72,4460.51,4430.77,4182.56,3766.67,4064.1,4477.95,4237.44,4465.13,1690,1709,5.362,0,0,0,0,
82,3881.54,4253.33,3884.62,4118.46,4243.59,3999.49,4443.59,4404.1,4148.72,3727.69,4054.87,4425.13,4277.44,4422.56,1691,1710,5.368,0,0,0,0,
83,3880.51,4269.23,3882.56,4158.97,4278.46,4009.23,4453.85,4409.23,4160,3748.21,4091.79,4447.69,4277.95,4488.21,1690,1709,5.375,0,0,0,0,
84,3960,4223.08,3949.23,4189.74,4309.74,4042.05,4477.95,4440.51,4191.28,3792.82,4096.92,4513.85,4229.23,4522.05,1691,1709,5.383,0,0,0,0,
85,3954.36,4218.46,3948.21,4163.08,4271.28,4046.15,4470.77,4434.36,4183.08,3775.9,4075.9,4503.59,4210.77,4469.23,1691,1708,5.391,0,0,0,0,
86,3915.38,4285.64,3918.97,4146.67,4305.13,4034.87,4460.51,4432.31,4184.1,3771.28,4104.62,4478.46,4278.97,4483.08,1690,1708,5.399,0,0,0,0,
87,3916.41,4225.13,3927.69,4120.51,4290.77,4012.82,4456.41,4430.26,4176.92,3774.36,4081.54,4472.31,4295.38,4490.26,1691,1708,5.407,0,0,0,0,
88,3898.97,4145.13,3915.38,4089.74,4210.26,4010.26,4462.56,4421.03,4157.95,3754.36,4035.38,4449.74,4263.08,4415.38,1691,1709,5.414,0,0,0,0,
89,3917.44,4273.85,3919.49,4172.31,4307.69,4057.44,4498.46,4463.08,4204.62,3796.41,4122.56,4479.49,4315.38,4452.31,1690,1710,5.422,0,0,0,0,
90,3987.18,4368.21,3971.79,4277.95,4438.46,4074.87,4511.79,4498.97,4251.79,3848.72,4191.79,4543.08,4348.21,4576.92,1691,1711,5.43,0,0,0,0,
91,3969.74,4235.38,3972.31,4202.56,4341.03,4037.44,4476.92,4456.92,4208.21,3805.64,4109.23,4514.36,4289.23,4536.92,1691,1711,5.438,0,0,0,0,
92,3906.67,4178.46,3931.79,4089.74,4249.74,4024.1,4466.15,4426.67,4174.87,3766.15,4083.59,4463.59,4266.67,4444.1,1692,1710,5.446,0,0,0,0,
93,3921.03,4238.46,3940,4106.15,4298.46,4034.87,4480,4444.62,4193.33,3776.92,4110.77,4504.62,4251.79,4501.03,1691,1709,5.453,0,0,0,0,
94,3937.44,4182.05,3948.72,4138.97,4264.62,4014.36,4467.18,4430.26,4173.33,3748.72,4029.23,4515.9,4188.21,4525.64,1693,1709,5.461,0,0,0,0,
95,3915.38,4134.36,3930.77,4104.62,4210.77,3998.46,4464.1,4420.51,4163.08,3736.41,4004.62,4476.92,4193.85,4463.08,1691,1707,5.469,0,0,0,0,
96,3925.13,4185.64,3946.15,4072.82,4272.82,4029.23,4490.26,4452.31,4205.13,3785.64,4100.51,4478.97,4293.85,4456.92,1692,1709,5.477,0,0,0,0,
97,3939.49,4236.92,3961.03,4123.08,4343.59,4055.9,4493.33,4466.15,4220,3816.41,4143.08,4486.15,4344.62,4482.56,1692,1708,5.486,0,0,0,0,
98,3930.26,4268.72,3927.69,4222.56,4350.77,4042.56,4474.87,4453.33,4203.08,3811.28,4111.28,4484.1,4302.56,4490.26,1690,1711,5.494,0,0,0,0,
99,3948.72,4242.56,3922.56,4229.23,4304.1,4035.9,4474.36,4443.08,4194.36,3796.41,4095.38,4495.9,4268.72,4509.23,1692,1711,5.5,0,0,0,0,
100,3961.03,4193.85,3965.64,4102.56,4241.54,4050.26,4491.79,4444.62,4189.23,3784.1,4102.56,4502.56,4282.05,4507.69,1691,1711,5.509,0,0,0,0,
101,3923.08,4206.15,3964.62,4047.69,4245.64,4040,4494.87,4449.74,4190.26,3786.15,4097.44,4493.85,4287.69,4466.67,1692,1712,5.516,0,0,0,0,
102,3921.54,4240.51,3932.82,4173.85,4344.1,4030.26,4480.51,4457.95,4210.77,3798.46,4084.62,4501.54,4278.97,4482.56,1692,1712,5.524,0,0,0,0,
103,3960,4237.95,3937.44,4248.72,4383.08,4047.18,4478.97,4463.59,4224.1,3808.21,4084.1,4513.33,4275.38,4511.28,1691,1711,5.532,0,0,0,0,
104,3947.69,4234.87,3945.13,4165.13,4333.33,4036.92,4484.1,4459.49,4213.85,3809.74,4113.85,4501.54,4289.23,4489.74,1690,1712,5.539,0,0,0,0,
105,3934.87,4228.72,3942.56,4120.51,4337.95,4028.72,4483.08,4458.46,4206.67,3804.62,4139.49,4498.46,4317.44,4503.59,1691,1712,5.547,0,0,0,0,
106,3945.64,4207.18,3942.05,4143.08,4342.05,4049.74,4487.18,4462.56,4208.72,3792.82,4122.05,4493.85,4329.74,4508.72,1690,1710,5.555,0,0,0,0,
107,3922.05,4221.54,3928.72,4138.97,4296.92,4045.64,4491.28,4451.79,4201.03,3781.03,4085.64,4476.41,4296.41,4463.59,1690,1710,5.563,0,0,0,0,
108,3922.56,4214.36,3936.41,4169.74,4325.64,4051.79,4489.74,4448.72,4202.05,3790.26,4085.13,4492.82,4251.79,4479.49,1691,1707,5.571,0,0,0,0,
109,3933.33,4193.33,3947.69,4194.36,4387.69,4070.26,4486.15,4464.1,4220.51,3815.9,4120.51,4517.44,4279.49,4515.9,1690,1707,5.579,0,0,0,0,
110,3912.31,4229.74,3920,4146.15,4345.64,4035.9,4471.79,4449.74,4213.85,3812.31,4125.13,4480.51,4341.54,4470.26,1692,1706,5.586,0,0,0,0,
111,3935.9,4244.1,3921.03,4128.21,4292.31,4013.85,4463.59,4423.08,4182.56,3782.56,4098.97,4455.9,4316.41,4460.51,1690,1707,5.595,0,0,0,0,
112,3970.26,4204.1,3961.54,4169.23,4344.1,4055.9,4486.67,4447.18,4202.05,3794.87,4097.44,4500.51,4278.46,4506.15,1692,1709,5.602,0,0,0,0,
113,3936.41,4205.64,3958.46,4184.62,4378.46,4060,4498.46,4471.79,4233.33,3824.62,4111.28,4510.26,4317.44,4489.74,1691,1709,5.61,0,0,0,0,
114,3912.31,4214.87,3928.21,4155.38,4298.97,4012.31,4469.74,4440,4194.36,3795.9,4104.1,4480.51,4306.15,4474.36,1690,1710,5.618,0,0,0,0,
115,3951.79,4189.74,3943.08,4132.31,4280,4022.56,4473.33,4437.44,4181.03,3781.03,4120,4497.44,4289.74,4513.33,1690,1710,5.625,0,0,0,0,
116,3975.38,4213.85,3972.82,4160.51,4361.54,4064.62,4506.67,4478.97,4227.69,3818.97,4145.13,4520.51,4327.69,4523.08,1691,1711,5.633,0,0,0,0,
117,3935.9,4245.13,3947.69,4194.87,4344.1,4064.62,4495.38,4469.74,4221.03,3819.49,4120,4506.15,4294.36,4489.23,1691,1710,5.641,0,0,0,0,
118,3906.15,4222.05,3920,4161.03,4294.36,4049.74,4473.85,4445.13,4194.36,3798.97,4106.15,4501.03,4273.33,4484.62,1690,1710,5.649,0,0,0,0,
119,3940,4201.03,3947.69,4137.95,4355.9,4054.36,4493.33,4469.23,4224.62,3821.03,4135.38,4511.28,4344.62,4507.18,1691,1708,5.657,0,0,0,0,
120,3967.69,4204.1,3968.72,4194.87,4397.44,4062.05,4504.1,4481.54,4237.44,3838.46,4142.05,4505.64,4365.13,4508.72,1689,1708,5.665,0,0,0,0,
121,3956.92,4226.15,3954.36,4233.33,4360.51,4062.56,4491.28,4465.13,4220.51,3835.38,4140,4507.69,4344.62,4508.72,1692,1707,5.672,0,0,0,0,
122,3974.36,4244.1,3963.59,4184.62,4340.51,4060.51,4490.77,4472.82,4235.38,3841.03,4154.36,4530.77,4353.85,4537.95,1690,1705,5.68,0,0,0,0,
123,3989.74,4187.69,3987.18,4090.26,4311.79,4048.72,4494.87,4473.85,4229.23,3826.15,4123.59,4539.49,4307.18,4550.77,1691,1707,5.689,0,0,0,0,
124,3970.77,4136.41,3984.62,4114.87,4309.74,4045.64,4493.85,4459.49,4204.62,3813.85,4102.05,4523.08,4297.95,4515.38,1691,1707,5.696,0,0,0,0,
125,3957.95,4176.92,3969.74,4229.74,4348.72,4045.13,4488.72,4457.44,4209.23,3822.05,4135.9,4505.64,4346.15,4503.59,1691,1709,5.704,0,0,0,0,
126,3959.49,4175.9,3972.31,4201.54,4281.03,4044.1,4483.08,4449.74,4203.59,3807.18,4134.36,4510.26,4296.92,4529.23,1692,1708,5.711,0,0,0,0,
127,3968.72,4167.69,3991.79,4091.28,4251.79,4059.49,4495.9,4454.87,4202.56,3803.59,4114.36,4530.26,4272.82,4524.1,1692,1710,5.719,0,0,0,0,
128,3990.26,4234.87,4001.54,4145.13,4393.85,4077.44,4515.38,4494.36,4243.59,3850.26,4140,4548.72,4367.69,4516.41,1692,1711,5.727,0,0,0,0,
0,3985.13,4205.13,3987.69,4229.23,4420.51,4066.15,4504.62,4498.46,4247.18,3855.9,4134.36,4539.49,4377.44,4528.21,1693,1712,5.735,0,0,0,0,
1,3965.13,4135.9,3980.51,4174.36,4295.9,4053.85,4493.33,4467.18,4210.77,3818.97,4110.26,4518.46,4316.92,4531.28,1694,1712,5.743,0,0,0,0,
2,3978.97,4207.18,3995.38,4146.15,4310.26,4064.62,4510.26,4480.51,4227.18,3834.87,4144.62,4530.26,4345.64,4538.97,1691,1713,5.757,0,0,0,0,
3,3984.1,4209.23,4003.59,4138.97,4351.79,4056.92,4509.23,4488.21,4237.95,3849.23,4141.03,4540,4339.49,4536.92,1693,1713,5.758,0,0,0,0,
4,3967.69,4103.59,4000,4111.28,4263.59,4048.21,4493.85,4460,4207.18,3817.95,4093.33,4523.59,4291.28,4525.64,1690,1710,5.767,0,0,0,0,
5,3969.74,4151.28,3986.15,4162.56,4267.18,4070.26,4501.54,4469.74,4220.51,3826.15,4127.18,4514.36,4353.33,4534.36,1691,1710,5.775,0,0,0,0,
6,4007.18,4257.44,3994.87,4218.46,4362.05,4081.54,4511.79,4498.46,4250.26,3860.51,4178.97,4535.9,4404.1,4571.28,1691,1707,5.782,0,0,0,0,
7,4058.46,4201.03,4039.49,4161.03,4334.87,4061.03,4504.1,4483.08,4224.62,3840.51,4145.13,4559.49,4357.44,4590.77,1689,1709,5.79,0,0,0,0,
8,4084.62,4197.44,4051.28,4161.54,4308.72,4053.85,4501.54,4462.56,4200,3817.44,4114.87,4571.28,4361.54,4617.44,1690,1708,5.798,0,0,0,0,
9,4130.26,4343.08,4047.18,4252.82,4383.59,4066.15,4506.15,4473.85,4214.87,3834.36,4146.67,4588.21,4415.9,4689.23,1689,1709,5.805,0,0,0,0,
10,4194.36,4376.92,4074.36,4217.44,4378.46,4053.33,4492.82,4466.67,4209.74,3828.21,4160.51,4594.36,4396.41,4733.85,1689,1710,5.814,0,0,0,0,
11,4218.46,4310.77,4092.82,4191.28,4309.23,4045.13,4485.64,4445.64,4193.85,3809.74,4147.69,4585.13,4372.82,4728.21,1689,1710,5.821,0,0,0,0,
12,4227.18,4283.08,4096.92,4253.33,4287.69,4059.49,4496.92,4448.21,4195.9,3812.31,4147.69,4586.67,4389.74,4721.03,1691,1709,5.83,0,0,0,0,
13,4238.97,4309.74,4101.54,4240.51,4304.1,4068.72,4507.18,4466.15,4204.62,3820.51,4158.97,4606.67,4385.64,4746.15,1691,1709,5.837,0,0,0,0,
14,4225.64,4339.49,4088.21,4180,4355.9,4067.18,4510.26,4478.46,4217.44,3830.26,4160,4603.59,4382.56,4754.36,1692,1708,5.844,0,0,0,0,
15,4191.79,4327.69,4066.15,4203.59,4372.31,4058.97,4502.56,4474.36,4221.03,3833.33,4139.49,4578.46,4386.15,4722.05,1692,1709,5.852,0,0,0,0,
16,4164.1,4300,4064.62,4248.21,4323.08,4057.44,4494.87,4470.77,4215.9,3831.79,4134.36,4576.92,4373.33,4709.23,1693,1709,5.861,0,0,0,0,
17,4144.62,4266.67,4059.49,4232.82,4315.9,4070.26,4498.46,4476.41,4219.49,3835.9,4154.36,4583.08,4367.69,4689.74,1693,1709,5.869,0,0,0,0,
18,4125.13,4260,4034.87,4228.21,4350.26,4076.92,4503.08,4476.41,4224.62,3840,4152.31,4559.49,4381.03,4630.77,1692,1708,5.876,0,0,0,0,
19,4103.59,4247.69,4040,4176.92,4334.87,4067.18,4501.03,4472.82,4218.97,3834.36,4131.28,4543.08,4376.41,4603.59,1692,1708,5.884,0,0,0,0,
20,4079.49,4222.56,4055.38,4127.69,4322.05,4066.15,4503.08,4473.85,4217.44,3831.28,4133.33,4553.85,4358.46,4613.85,1694,1706,5.892,0,0,0,0,
21,4058.97,4231.28,4027.69,4186.67,4338.46,4077.44,4508.72,4472.82,4217.44,3837.95,4142.56,4543.59,4373.85,4584.62,1691,1706,5.899,0,0,0,0,
22,4038.97,4263.08,3997.95,4239.49,4359.49,4080.51,4507.18,4471.28,4211.79,3846.67,4140,4532.82,4381.54,4577.95,1692,1707,5.907,0,0,0,0,
23,4047.69,4216.92,4023.08,4185.64,4371.79,4074.36,4506.15,4477.95,4213.85,3848.72,4143.08,4561.54,4344.1,4629.23,1692,1706,5.915,0,0,0,0,
24,4050.26,4116.92,4042.56,4118.97,4317.95,4059.49,4504.1,4468.72,4214.87,3832.31,4134.36,4557.44,4323.59,4601.54,1692,1709,5.923,0,0,0,0,
25,4008.72,4146.15,4015.9,4145.64,4277.44,4070.77,4507.69,4461.03,4214.87,3831.28,4126.67,4524.1,4351.79,4527.69,1691,1708,5.931,0,0,0,0,
26,4006.15,4195.38,4022.56,4166.67,4322.56,4086.15,4510.77,4476.92,4221.03,3847.69,4135.38,4543.59,4364.1,4547.69,1691,1711,5.939,0,0,0,0,
27,4026.67,4132.31,4043.08,4131.28,4315.9,4057.95,4496.41,4469.74,4212.82,3833.33,4123.59,4556.92,4337.44,4576.41,1691,1711,5.946,0,0,0,0,
28,3995.38,4118.46,4016.92,4130.26,4296.41,4059.49,4502.05,4461.03,4214.36,3832.31,4124.1,4526.67,4354.87,4537.44,1691,1710,5.954,0,0,0,0,
29,3979.49,4183.08,4004.62,4189.74,4370.26,4103.08,4526.67,4492.82,4245.13,3874.36,4162.05,4542.05,4400,4537.95,1690,1709,5.962,0,0,0,0,
30,4002.56,4167.69,4024.62,4170.77,4374.36,4087.18,4515.38,4496.92,4242.56,3869.23,4158.46,4557.95,4382.56,4559.49,1689,1710,5.97,0,0,0,0,
31,3991.79,4097.95,4022.05,4075.9,4280,4055.38,4495.38,4458.46,4203.59,3821.03,4115.38,4523.08,4333.33,4536.41,1689,1709,5.977,0,0,0,0,
32,3981.03,4130.26,4006.67,4129.23,4295.38,4094.36,4514.87,4467.69,4213.85,3836.41,4131.28,4531.28,4344.62,4544.62,1687,1710,5.986,0,0,0,0,
33,4006.67,4164.62,4018.97,4214.36,4369.74,4111.79,4522.05,4498.97,4254.36,3882.56,4174.36,4574.87,4381.54,4577.95,1687,1711,5.994,0,0,0,0,
34,4011.28,4144.1,4033.33,4162.56,4378.46,4081.54,4507.18,4498.97,4262.56,3888.72,4180,4565.13,4405.64,4565.64,1686,1711,6.001,0,0,0,0,
35,3992.82,4143.59,4020.51,4137.95,4364.62,4082.56,4511.28,4492.82,4252.82,3875.9,4164.62,4531.79,4414.36,4539.49,1687,1712,6.01,0,0,0,0,
36,3989.23,4144.1,4005.13,4170.26,4323.59,4093.85,4512.31,4484.1,4235.38,3855.9,4137.44,4536.92,4360,4548.21,1687,1710,6.017,0,0,0,0,
37,3989.23,4099.49,4014.36,4116.92,4282.05,4088.72,4507.69,4478.46,4224.1,3847.18,4135.9,4556.41,4333.33,4567.18,1687,1711,6.024,0,0,0,0,
38,3987.18,4064.62,4026.15,4077.44,4324.1,4094.87,4520,4493.33,4244.1,3866.67,4168.72,4549.74,4389.23,4568.72,1688,1710,6.033,0,0,0,0,
39,3987.18,4084.62,4011.79,4132.31,4353.33,4095.9,4522.56,4497.44,4252.82,3870.26,4158.46,4532.31,4375.38,4548.72,1689,1709,6.041,0,0,0,0,
40,3984.1,4114.87,4002.56,4164.62,4309.74,4088.21,4512.82,4485.13,4236.41,3852.31,4126.15,4540,4327.69,4541.54,1690,1710,6.048,0,0,0,0,
41,3987.69,4143.59,4018.46,4154.36,4333.33,4099.49,4521.54,4496.41,4242.56,3869.74,4158.46,4557.95,4401.03,4558.46,1690,1711,6.056,0,0,0,0,
42,3995.9,4128.21,4029.74,4122.56,4375.9,4105.13,4527.69,4505.64,4253.85,3885.13,4180.51,4554.36,4429.74,4568.72,1693,1712,6.064,0,0,0,0,
43,4012.82,4058.46,4032.82,4111.79,4325.64,4105.13,4517.95,4490.26,4236.92,3853.33,4143.08,4552.31,4336.41,4593.33,1691,1713,6.071,0,0,0,0,
44,4025.64,4032.82,4043.59,4145.64,4277.44,4098.46,4518.46,4482.56,4221.54,3828.72,4125.13,4568.72,4311.79,4615.9,1692,1713,6.079,0,0,0,0,
45,4003.08,4091.28,4034.36,4137.44,4320,4082.56,4524.62,4492.82,4235.38,3852.82,4148.72,4565.13,4377.44,4578.46,1692,1711,6.087,0,0,0,0,
46,3984.62,4127.18,4018.46,4098.46,4344.62,4091.28,4522.05,4497.95,4247.18,3872.31,4154.87,4544.1,4385.64,4546.67,1691,1711,6.095,0,0,0,0,
47,4006.15,4051.79,4033.85,4109.74,4278.97,4106.67,4521.03,4486.67,4233.33,3848.72,4134.87,4544.1,4339.49,4582.56,1691,1707,6.103,0,0,0,0,
48,4030.77,4032.82,4044.1,4144.62,4287.69,4111.28,4532.82,4496.41,4239.49,3851.79,4149.23,4563.08,4361.54,4615.9,1690,1708,6.111,0,0,0,0,
49,4030.77,4127.18,4032.82,4124.62,4373.85,4114.87,4543.59,4522.05,4264.1,3885.64,4179.49,4572.82,4423.59,4604.62,1691,1707,6.118,0,0,0,0,
50,4036.92,4105.13,4045.13,4085.64,4335.9,4112.82,4541.03,4512.82,4250.77,3872.31,4157.44,4568.21,4397.95,4598.46,1691,1709,6.126,0,0,0,0,
51,4041.54,4000,4050.26,4111.79,4257.95,4100,4532.31,4484.62,4222.56,3837.95,4118.97,4563.59,4313.33,4624.1,1691,1711,6.134,0,0,0,0,
52,4025.64,4048.21,4022.05,4139.49,4330.77,4103.59,4533.33,4498.46,4244.62,3856.92,4135.38,4567.69,4328.72,4635.38,1692,1712,6.143,0,0,0,0,
53,4013.85,4103.59,4022.05,4085.13,4332.82,4107.18,4536.92,4514.36,4260,3873.33,4143.59,4561.03,4390.77,4591.28,1692,1710,6.15,0,0,0,0,
54,4013.85,4039.49,4043.59,4040.51,4209.23,4108.72,4541.54,4492.31,4230.77,3842.05,4118.97,4542.56,4348.72,4568.72,1692,1711,6.158,0,0,0,0,
55,4042.56,4048.21,4048.72,4098.46,4284.62,4121.54,4549.74,4496.92,4242.05,3854.36,4148.21,4565.64,4307.18,4631.79,1693,1712,6.165,0,0,0,0,
56,4070.26,4110.77,4044.1,4165.64,4412.31,4115.38,4543.08,4522.56,4275.38,3893.85,4176.41,4595.9,4362.56,4657.44,1694,1710,6.173,0,0,0,0,
57,4051.28,4073.33,4030.77,4127.18,4320.51,4107.18,4525.13,4501.03,4252.82,3873.85,4132.31,4559.49,4410.26,4612.31,1693,1712,6.181,0,0,0,0,
58,4014.36,4041.03,4020,4047.69,4236.92,4105.13,4515.38,4467.18,4215.38,3835.38,4096.92,4521.03,4365.13,4602.05,1694,1712,6.189,0,0,0,0,
59,4016.41,4055.9,4038.46,4032.31,4282.05,4097.44,4526.15,4481.54,4226.67,3842.56,4128.72,4554.36,4306.67,4626.15,1692,1713,6.197,0,0,0,0,
60,4057.44,4060.51,4051.79,4111.28,4288.21,4109.74,4538.46,4503.59,4248.21,3861.54,4151.79,4589.23,4312.82,4638.97,1693,1712,6.206,0,0,0,0,
61,4077.44,4104.62,4034.36,4180,4298.97,4124.1,4537.95,4501.03,4245.64,3862.05,4130.26,4575.38,4360,4656.92,1692,1711,6.212,0,0,0,0,
62,4057.95,4126.67,4027.18,4132.82,4357.95,4109.23,4534.87,4505.64,4252.82,3865.13,4125.13,4564.62,4393.85,4645.13,1691,1711,6.22,0,0,0,0,
63,4031.28,4077.44,4028.72,4031.79,4316.92,4107.69,4537.44,4506.15,4256.41,3860,4133.85,4551.79,4371.79,4543.59,1691,1709,6.228,0,0,0,0,
64,4057.44,4042.05,4037.44,4047.69,4226.67,4111.28,4530.26,4482.56,4228.72,3838.46,4117.95,4542.56,4302.05,4453.85,1692,1709,6.236,0,0,0,0,
65,4079.49,4046.15,4036.92,4112.82,4216.41,4080,4513.33,4461.03,4201.03,3819.49,4074.36,4551.79,4257.95,4444.1,1691,1709,6.243,0,0,0,0,
66,4068.21,4090.77,4031.28,4082.05,4277.95,4098.46,4535.38,4489.23,4236.41,3847.69,4095.38,4567.18,4326.67,4462.05,1691,1709,6.253,0,0,0,0,
67,4124.62,4151.28,4068.21,4083.59,4344.62,4146.67,4557.44,4524.1,4282.56,3898.46,4183.59,4586.67,4434.87,4484.1,1692,1708,6.259,0,0,0,0,
68,4183.59,4147.18,4093.33,4143.59,4314.87,4117.95,4531.28,4491.79,4243.59,3873.85,4183.59,4584.1,4405.64,4494.87,1694,1708,6.267,0,0,0,0,
69,4196.92,4162.05,4076.41,4163.59,4278.46,4096.41,4528.21,4470.77,4212.31,3837.95,4136.92,4589.74,4346.15,4521.03,1694,1708,6.275,0,0,0,0,
70,4262.05,4266.15,4098.97,4152.82,4327.69,4118.46,4545.64,4501.03,4242.56,3864.1,4167.18,4634.36,4386.15,4576.92,1695,1707,6.283,0,0,0,0,
71,4341.03,4303.59,4145.64,4140.51,4324.1,4094.87,4518.97,4490.26,4234.87,3868.72,4190.26,4662.56,4413.85,4622.05,1694,1707,6.29,0,0,0,0,
72,4360.51,4237.95,4154.87,4136.92,4256.92,4066.15,4501.54,4459.49,4203.59,3840,4163.59,4648.21,4409.23,4643.59,1695,1706,6.298,0,0,0,0,
73,4367.18,4235.38,4157.44,4181.54,4268.72,4087.69,4529.23,4479.49,4225.64,3847.18,4173.85,4647.69,4422.05,4653.33,1694,1706,6.306,0,0,0,0,
74,4370.77,4296.41,4162.05,4182.05,4308.72,4103.08,4534.87,4501.03,4247.18,3864.62,4190.77,4660,4417.95,4653.33,1694,1706,6.314,0,0,0,0,
75,4326.15,4289.74,4135.38,4111.28,4281.54,4094.36,4517.95,4484.1,4230.77,3858.46,4164.62,4641.03,4392.31,4614.36,1694,1705,6.322,0,0,0,0,
76,4280.51,4243.59,4109.74,4157.95,4294.36,4093.85,4518.97,4478.46,4226.15,3864.1,4172.82,4617.44,4413.33,4534.36,1692,1707,6.329,0,0,0,0,
77,4257.95,4218.97,4113.33,4198.46,4340,4096.92,4527.18,4491.79,4234.36,3874.36,4203.08,4620.51,4427.69,4487.69,1692,1705,6.337,0,0,0,0,
78,4242.56,4215.9,4128.72,4136.92,4349.23,4108.21,4539.49,4513.33,4252.82,3887.69,4209.23,4653.33,4385.64,4516.41,1690,1707,6.345,0,0,0,0,
79,4213.85,4219.49,4115.38,4106.15,4312.31,4112.31,4545.64,4511.79,4258.46,3883.59,4191.28,4648.72,4348.21,4508.72,1691,1707,6.353,0,0,0,0,
80,4163.08,4168.21,4078.97,4101.54,4244.1,4092.31,4532.31,4477.95,4226.15,3840.51,4127.69,4601.54,4324.62,4434.87,1689,1706,6.361,0,0,0,0,
81,4151.28,4075.9,4083.08,4090.77,4241.54,4097.95,4534.87,4482.05,4226.67,3832.31,4094.87,4597.95,4324.1,4415.9,1690,1707,6.369,0,0,0,0,
82,4148.72,4085.13,4094.36,4083.08,4298.46,4128.21,4554.87,4512.82,4261.54,3862.05,4143.08,4607.18,4345.13,4437.44,1689,1706,6.376,0,0,0,0,
83,4107.69,4182.56,4060,4090.77,4346.67,4124.62,4549.74,4509.74,4264.1,3871.28,4185.64,4578.46,4373.85,4417.95,1690,1708,6.384,0,0,0,0,
84,4075.9,4186.15,4037.44,4086.67,4340,4099.49,4531.79,4493.85,4245.64,3863.08,4168.72,4560.51,4368.21,4394.36,1691,1707,6.392,0,0,0,0,
85,4067.18,4106.15,4044.1,4086.67,4287.18,4100.51,4533.85,4493.85,4242.56,3861.03,4139.49,4566.67,4342.05,4382.05,1691,1708,6.4,0,0,0,0,
86,4067.69,4082.56,4046.15,4086.67,4265.64,4114.36,4542.56,4499.49,4252.82,3866.15,4146.15,4568.21,4351.79,4377.95,1691,1707,6.409,0,0,0,0,
87,4064.62,4104.62,4055.38,4057.95,4280.51,4104.1,4535.9,4497.95,4251.79,3862.56,4154.36,4575.9,4330.77,4401.03,1692,1709,6.415,0,0,0,0,
88,4054.36,4121.03,4066.15,4045.13,4308.21,4098.46,4537.44,4507.18,4248.72,3862.56,4136.41,4594.36,4291.79,4430.77,1693,1708,6.423,0,0,0,0,
89,4042.05,4113.85,4054.36,4049.74,4324.1,4120.51,4554.87,4524.1,4258.46,3873.33,4129.74,4594.87,4323.59,4468.21,1693,1709,6.431,0,0,0,0,
90,4029.23,4082.05,4034.36,4081.03,4316.92,4134.87,4553.85,4520,4262.56,3877.44,4154.87,4571.79,4372.82,4523.08,1694,1709,6.439,0,0,0,0,
91,4022.05,4095.38,4031.28,4118.46,4321.03,4128.21,4543.08,4508.21,4255.38,3865.64,4168.21,4561.54,4355.38,4613.85,1694,1710,6.447,0,0,0,0,
92,4027.18,4114.36,4052.82,4072.82,4335.38,4114.87,4547.69,4511.28,4255.9,3856.92,4145.64,4573.33,4311.28,4669.23,1695,1711,6.456,0,0,0,0,
93,4007.69,4103.08,4049.23,4006.67,4331.28,4114.36,4555.38,4514.36,4264.62,3863.08,4138.97,4562.56,4320,4626.15,1695,1710,6.462,0,0,0,0,
94,3989.74,4113.85,4019.49,4058.46,4338.46,4124.1,4552.82,4514.36,4267.18,3880.51,4164.62,4556.92,4354.36,4602.56,1695,1711,6.47,0,0,0,0,
95,4008.72,4089.74,4022.05,4121.54,4334.36,4121.03,4549.74,4515.9,4263.08,3888.21,4167.69,4560,4371.28,4595.38,1695,1710,6.478,0,0,0,0,
96,4007.18,4045.13,4035.9,4068.21,4292.82,4113.33,4549.74,4514.36,4260,3874.36,4151.79,4546.67,4344.1,4581.03,1695,1710,6.486,0,0,0,0,
97,3975.9,4081.03,4019.49,4029.74,4301.54,4123.08,4550.26,4514.36,4261.54,3868.21,4157.95,4552.82,4310.77,4610.26,1695,1710,6.494,0,0,0,0,
98,3982.56,4117.44,4017.95,4068.72,4341.54,4144.62,4556.41,4525.13,4270.26,3885.64,4168.72,4573.85,4338.97,4623.08,1693,1713,6.502,0,0,0,0,
99,3996.41,4072.31,4036.92,4072.82,4323.59,4133.85,4555.9,4522.05,4263.59,3884.1,4155.38,4570.26,4351.79,4580,1694,1713,6.509,0,0,0,0,
100,3986.15,4092.82,4025.13,4069.23,4340.51,4113.33,4549.23,4515.9,4262.05,3879.49,4162.56,4573.85,4333.85,4612.31,1692,1715,6.517,0,0,0,0,
101,3999.49,4134.87,4030.26,4070.26,4376.41,4118.46,4551.79,4525.13,4281.03,3893.33,4191.79,4597.44,4342.56,4697.95,1692,1716,6.525,0,0,0,0,
102,3994.87,4076.41,4042.56,4049.23,4331.79,4121.54,4551.28,4523.08,4280,3888.21,4183.08,4572.82,4374.87,4642.05,1691,1716,6.534,0,0,0,0,
103,3973.85,4054.87,4025.64,4047.69,4296.41,4126.15,4551.79,4518.46,4269.23,3877.95,4162.56,4543.59,4380,4565.64,1690,1717,6.541,0,0,0,0,
104,3983.08,4087.69,4017.95,4065.13,4310.26,4130.26,4558.97,4525.13,4276.41,3889.23,4164.62,4563.59,4354.36,4596.92,1689,1715,6.548,0,0,0,0,
105,3968.21,4070.77,4014.87,4078.46,4326.67,4120.51,4555.38,4523.08,4280.51,3900.51,4168.72,4569.23,4362.05,4613.85,1688,1715,6.556,0,0,0,0,
106,3948.72,4067.69,4016.92,4047.69,4359.49,4121.03,4549.74,4522.56,4276.92,3903.08,4176.41,4559.49,4388.21,4594.87,1690,1713,6.564,0,0,0,0,
107,3982.05,4110.77,4037.95,4021.54,4374.87,4138.46,4560,4534.87,4283.59,3898.46,4175.9,4580.51,4370.26,4623.59,1688,1712,6.572,0,0,0,0,
108,4002.56,4099.49,4036.41,4073.33,4344.62,4138.46,4564.62,4530.77,4277.44,3885.64,4163.59,4586.67,4347.18,4641.03,1690,1711,6.58,0,0,0,0,
109,3976.41,4080.51,4008.72,4124.62,4340.51,4128.72,4552.31,4513.85,4258.46,3887.18,4170.26,4549.23,4390.77,4592.82,1689,1712,6.588,0,0,0,0,
110,3982.05,4113.33,4017.44,4108.21,4370.26,4136.41,4550.77,4517.95,4265.13,3903.08,4186.15,4550.77,4421.03,4597.95,1691,1712,6.596,0,0,0,0,
111,3996.41,4113.33,4035.38,4068.72,4366.15,4134.87,4553.85,4520,4268.72,3888.72,4171.28,4580.51,4366.15,4641.54,1689,1714,6.603,0,0,0,0,
112,3982.56,4072.82,4027.69,4040.51,4330.77,4123.08,4547.69,4504.1,4250.77,3867.18,4148.21,4566.15,4339.49,4617.95,1692,1714,6.611,0,0,0,0,
113,3980.51,4063.59,4027.18,4060.51,4320.51,4121.03,4547.69,4502.56,4249.74,3879.49,4159.49,4545.13,4387.69,4588.21,1692,1712,6.619,0,0,0,0,
114,3974.87,4090.77,4021.03,4110.77,4340,4124.1,4551.79,4514.87,4266.15,3896.92,4176.41,4551.79,4411.79,4600.51,1692,1714,6.627,0,0,0,0,
115,3964.1,4091.28,4014.87,4090.26,4336.92,4122.56,4551.79,4521.03,4273.33,3896.92,4173.33,4556.41,4401.03,4600,1692,1714,6.634,0,0,0,0,
116,3987.69,4066.67,4035.9,4057.44,4325.13,4119.49,4553.85,4524.62,4274.36,3894.36,4178.97,4563.59,4401.03,4615.9,1692,1715,6.642,0,0,0,0,
117,4002.05,4085.64,4048.21,4080,4335.9,4128.72,4557.44,4526.15,4279.49,3898.97,4188.72,4582.56,4402.05,4653.33,1692,1714,6.651,0,0,0,0,
118,3987.69,4117.44,4037.95,4074.87,4344.62,4137.44,4558.97,4527.69,4280.51,3905.13,4178.97,4585.64,4395.38,4636.92,1692,1715,6.658,0,0,0,0,
119,3985.64,4094.36,4032.31,4055.38,4334.87,4126.15,4554.36,4523.59,4271.28,3902.56,4170.77,4572.82,4394.87,4609.23,1692,1715,6.666,0,0,0,0,
120,3990.26,4073.85,4031.79,4077.44,4340.51,4122.56,4548.72,4514.87,4263.08,3896.41,4181.54,4566.67,4396.41,4627.18,1691,1714,6.674,0,0,0,0,
121,3987.18,4101.54,4030.26,4082.05,4351.79,4133.85,4551.79,4514.36,4266.67,3897.95,4190.26,4569.74,4406.15,4644.1,1692,1713,6.681,0,0,0,0,
122,3989.74,4082.56,4036.41,4056.92,4325.13,4128.21,4550.77,4509.74,4261.03,3892.31,4180,4567.69,4417.44,4628.72,1692,1713,6.689,0,0,0,0,
123,3991.79,4044.62,4041.54,4051.79,4307.18,4115.9,4543.59,4506.67,4250.77,3883.59,4162.05,4568.21,4401.54,4615.38,1693,1713,6.698,0,0,0,0,
124,3987.18,4063.59,4042.05,4040.51,4326.67,4124.62,4547.18,4519.49,4264.1,3891.79,4169.74,4577.95,4401.54,4623.08,1692,1714,6.705,0,0,0,0,
125,3990.77,4081.03,4046.67,4037.95,4326.15,4129.74,4552.31,4524.1,4275.38,3898.97,4189.74,4577.95,4428.72,4633.33,1693,1712,6.713,0,0,0,0,
126,3993.33,4066.67,4046.67,4063.59,4301.54,4128.21,4548.72,4512.82,4261.03,3889.74,4179.49,4569.23,4423.08,4625.13,1692,1712,6.72,0,0,0,0,
127,3990.26,4075.38,4043.59,4066.15,4318.46,4134.36,4549.74,4514.87,4254.87,3889.74,4165.64,4574.87,4402.56,4616.92,1692,1711,6.728,0,0,0,0,
128,3992.82,4090.77,4046.15,4058.97,4351.79,4129.23,4555.9,4528.21,4274.87,3905.13,4183.08,4585.13,4414.87,4629.74,1691,1710,6.737,0,0,0,0,
0,3996.41,4053.85,4051.79,4055.9,4330.77,4121.03,4556.92,4528.21,4287.69,3912.31,4192.31,4586.15,4423.08,4638.46,1692,1709,6.744,0,0,0,0,
1,3998.46,4024.1,4057.44,4029.74,4297.44,4125.64,4555.9,4523.59,4273.85,3901.03,4174.36,4586.15,4396.92,4633.33,1690,1709,6.752,0,0,0,0,
2,3996.41,4061.03,4051.28,4016.92,4314.36,4128.72,4555.38,4522.05,4261.03,3889.23,4161.54,4576.41,4383.59,4627.69,1691,1709,6.76,0,0,0,0,
3,3988.21,4088.72,4037.44,4040.51,4350.77,4127.18,4555.38,4520.51,4269.74,3896.41,4168.72,4558.46,4407.18,4615.9,1690,1708,6.767,0,0,0,0,
4,3986.15,4060,4034.36,4035.9,4346.15,4126.67,4548.72,4513.33,4268.72,3897.95,4172.31,4552.31,4419.49,4606.15,1689,1710,6.776,0,0,0,0,
5,3989.23,4043.59,4041.54,4011.28,4323.08,4128.72,4542.56,4502.05,4249.23,3882.05,4163.59,4557.95,4402.56,4610.26,1690,1709,6.783,0,0,0,0,
6,3992.82,4062.56,4048.72,4022.56,4332.82,4133.33,4550.26,4503.08,4248.72,3884.62,4161.03,4567.18,4398.46,4621.03,1690,1710,6.791,0,0,0,0,
7,3999.49,4061.03,4054.87,4022.56,4347.18,4131.79,4556.41,4515.38,4262.05,3892.31,4173.85,4579.49,4414.36,4633.33,1690,1710,6.799,0,0,0,0,
8,4006.67,4033.85,4064.62,3996.92,4337.95,4125.13,4555.38,4524.62,4274.36,3893.33,4183.59,4589.23,4415.38,4643.08,1690,1710,6.807,0,0,0,0,
9,4006.67,4027.69,4068.72,3992.82,4326.67,4132.31,4558.97,4525.64,4278.46,3903.59,4182.56,4587.18,4411.28,4637.95,1691,1709,6.814,0,0,0,0,
10,4002.56,4043.59,4063.59,3976.41,4321.54,4139.49,4560.51,4521.03,4266.15,3906.67,4180.51,4583.59,4416.41,4632.82,1690,1709,6.822,0,0,0,0,
11,4001.54,4041.54,4063.08,3950.77,4325.64,4133.85,4555.38,4527.69,4268.21,3902.56,4184.1,4588.21,4415.9,4634.87,1692,1709,6.831,0,0,0,0,
12,3997.95,4026.67,4060.51,3955.38,4334.87,4134.87,4556.92,4537.95,4288.21,3907.18,4182.05,4585.64,4403.59,4626.15,1691,1708,6.838,0,0,0,0,
13,3995.9,4017.95,4053.33,3953.33,4329.23,4140.51,4557.95,4529.74,4281.54,3908.21,4171.28,4575.9,4395.9,4620.51,1692,1710,6.846,0,0,0,0,
14,3999.49,4012.82,4052.82,3926.67,4327.69,4138.46,4555.38,4518.46,4260.51,3903.08,4170.77,4575.38,4398.97,4627.18,1692,1710,6.854,0,0,0,0,
15,4000.51,4010.26,4058.46,3913.85,4343.08,4135.9,4555.38,4518.97,4259.49,3902.05,4173.85,4575.38,4398.46,4624.62,1691,1711,6.861,0,0,0,0,
16,4003.59,4024.62,4060,3915.38,4347.18,4134.36,4554.87,4522.56,4262.05,3898.46,4170.26,4569.74,4393.33,4624.1,1692,1709,6.869,0,0,0,0,
17,4010.26,4038.97,4062.56,3906.15,4342.56,4136.92,4556.92,4523.08,4265.13,3901.03,4174.36,4577.44,4395.9,4639.49,1691,1711,6.877,0,0,0,0,
18,4010.26,4036.92,4070.26,3895.38,4348.21,4138.46,4561.54,4524.1,4269.74,3904.1,4181.03,4587.69,4400.51,4641.03,1692,1711,6.885,0,0,0,0,
19,4008.21,4037.95,4074.87,3881.03,4350.26,4137.95,4565.64,4528.21,4265.64,3896.92,4180,4585.13,4400.51,4628.21,1692,1711,6.893,0,0,0,0,
20,4015.38,4042.56,4078.97,3862.05,4337.44,4145.64,4569.23,4536.41,4262.56,3903.59,4179.49,4589.23,4398.46,4640.51,1692,1711,6.901,0,0,0,0,
