eeg data - format version 0.2: COUNTER,AF3,F7,F3, FC5, T7, P7, O1, O2,P8, T8, FC6, F4,F8, AF4,GYROX, GYROY, TIMESTAMP, FUNC_ID, FUNC_VALUE, MARKER, SYNC_SIGNAL, Cognitiv Action, Cognitiv Power,
104,4341.54,3895.38,4254.87,4043.59,3934.87,3622.05,4396.92,4473.85,4818.46,4473.85,4423.08,4394.36,4200,3857.95,1655,1690,0.218,0,0,0,0,1,0,
105,4361.54,3867.69,4274.87,4048.72,3961.54,3630.26,4401.54,4484.62,4827.18,4487.18,4434.36,4403.08,4222.56,3878.97,1654,1693,0.226,0,0,0,0,1,0,
106,4386.15,3891.28,4297.95,4086.67,3986.15,3642.56,4413.85,4500,4847.18,4520.51,4486.15,4413.33,4307.18,3901.54,1655,1692,0.234,0,0,0,0,1,0,
107,4361.54,3904.1,4272.31,4098.46,3965.13,3630.26,4401.54,4488.21,4836.92,4505.64,4477.95,4398.46,4273.85,3880.51,1655,1693,0.242,0,0,0,0,1,0,
108,4348.21,3901.03,4257.44,4087.18,3965.13,3618.46,4389.23,4478.46,4825.64,4485.13,4441.54,4391.28,4237.95,3861.54,1656,1692,0.25,0,0,0,0,1,0,
109,4376.41,3877.95,4281.03,4083.08,3977.44,3623.59,4396.92,4485.13,4831.28,4504.1,4448.72,4394.87,4316.92,3865.13,1655,1692,0.257,0,0,0,0,1,0,
110,4388.21,3869.74,4281.54,4090.26,3961.03,3624.62,4393.85,4477.44,4824.62,4496.92,4490.77,4406.15,4248.72,3882.05,1656,1691,0.265,0,0,0,0,1,0,
111,4373.33,3892.82,4268.21,4064.62,3952.82,3618.46,4387.69,4471.79,4818.46,4471.79,4512.82,4425.64,4120.51,3899.49,1654,1691,0.273,0,0,0,0,1,0,
112,4359.49,3906.15,4272.31,4031.79,3957.44,3620.51,4395.9,4485.13,4831.28,4484.1,4473.33,4411.79,4249.23,3884.1,1656,1692,0.281,0,0,0,0,1,0,
113,4343.59,3908.72,4264.62,4055.38,3944.62,3622.05,4395.38,4484.1,4835.38,4491.79,4450.77,4387.69,4367.69,3857.44,1655,1691,0.289,0,0,0,0,1,0,
114,4338.46,3886.15,4254.87,4079.49,3944.1,3611.79,4382.56,4471.28,4825.64,4485.64,4475.38,4396.92,4267.69,3855.38,1654,1692,0.297,0,0,0,0,1,0,
115,4354.36,3858.97,4277.44,4078.97,3944.1,3624.62,4391.28,4481.54,4826.67,4488.21,4476.41,4419.49,4185.13,3890.77,1655,1690,0.304,0,0,0,0,1,0,
116,4369.23,3880,4296.41,4082.05,3927.69,3646.67,4404.62,4498.97,4838.46,4472.82,4465.64,4431.28,4189.74,3929.74,1654,1690,0.312,0,0,0,0,1,0,
117,4365.64,3903.08,4286.15,4073.33,3943.08,3626.67,4390.77,4488.72,4836.41,4454.36,4477.44,4425.64,4208.72,3913.33,1654,1689,0.32,0,0,0,0,1,0,
118,4363.08,3880,4278.46,4077.95,3990.26,3615.38,4387.69,4481.54,4829.74,4472.82,4461.54,4404.62,4294.87,3866.67,1654,1691,0.328,0,0,0,0,1,0,
119,4366.67,3867.69,4274.87,4093.33,3991.79,3637.44,4401.54,4489.23,4835.9,4471.79,4447.18,4405.64,4299.49,3881.54,1654,1691,0.336,0,0,0,0,1,0,
120,4359.49,3891.79,4270.26,4064.62,3951.79,3626.67,4394.36,4479.49,4830.77,4444.1,4476.92,4424.1,4199.49,3919.49,1654,1691,0.343,0,0,0,0,1,0,
121,4345.64,3884.1,4261.54,4024.1,3923.08,3598.46,4380.51,4457.95,4807.18,4456.41,4460,4394.36,4223.59,3873.33,1654,1690,0.351,0,0,0,0,1,0,
122,4354.87,3862.56,4262.56,4044.1,3937.95,3622.56,4395.38,4465.13,4809.74,4483.08,4424.1,4380.51,4270.77,3840,1653,1690,0.359,0,0,0,0,1,0,
123,4378.46,3866.67,4277.44,4088.21,3982.05,3648.21,4407.18,4484.62,4834.87,4494.36,4445.64,4411.28,4242.05,3877.95,1654,1690,0.367,0,0,0,0,1,0,
124,4374.87,3880.51,4272.31,4085.64,3979.49,3624.62,4389.23,4473.85,4831.28,4495.38,4468.72,4404.1,4252.31,3883.59,1654,1688,0.376,0,0,0,0,1,0,
125,4357.95,3891.79,4250.77,4047.18,3957.44,3613.85,4382.05,4467.18,4823.08,4476.92,4456.92,4382.05,4276.41,3858.97,1654,1689,0.383,0,0,0,0,1,0,
126,4364.1,3897.44,4257.95,4040.51,3980,3636.41,4401.03,4490.26,4844.62,4478.46,4467.18,4403.59,4254.87,3874.87,1655,1688,0.39,0,0,0,0,1,0,
127,4369.23,3889.74,4281.03,4072.31,3985.13,3643.59,4405.64,4499.49,4855.38,4510.26,4489.74,4421.54,4258.97,3887.69,1654,1689,0.398,0,0,0,0,1,0,
128,4360,3897.95,4270.26,4077.44,3965.13,3625.13,4391.79,4481.54,4836.41,4507.18,4471.28,4405.13,4261.54,3880,1655,1689,0.406,0,0,0,0,1,0,
0,4361.03,3894.87,4253.85,4068.72,3950.77,3618.97,4389.23,4474.36,4825.64,4476.92,4452.82,4396.41,4214.87,3889.74,1654,1689,0.414,0,0,0,0,1,0,
1,4365.13,3833.33,4267.69,4064.62,3936.41,3624.62,4393.33,4479.49,4830.77,4478.46,4460.51,4397.44,4224.1,3889.74,1655,1690,0.422,0,0,0,0,1,0,
2,4356.92,3830.26,4268.72,4039.49,3931.79,3615.9,4384.62,4470.77,4825.64,4460,4460,4401.03,4220.51,3874.87,1654,1690,0.429,0,0,0,0,1,0,
3,4348.72,3902.56,4249.23,4033.85,3957.44,3618.97,4386.15,4469.23,4823.59,4440,4441.54,4396.41,4198.97,3865.13,1654,1692,0.438,0,0,0,0,1,0,
4,4354.36,3901.03,4252.82,4043.59,3976.41,3637.95,4403.08,4486.15,4835.38,4480.51,4434.87,4385.64,4262.05,3867.69,1654,1692,0.445,0,0,0,0,1,0,
5,4355.9,3859.49,4267.69,4041.03,3971.28,3640.51,4405.64,4493.85,4843.08,4488.72,4451.28,4389.74,4297.95,3872.31,1654,1692,0.453,0,0,0,0,1,0,
6,4357.95,3882.56,4265.64,4059.49,3978.97,3635.38,4400.51,4491.28,4840.51,4456.41,4469.74,4408.72,4247.69,3880,1653,1691,0.461,0,0,0,0,1,0,
7,4371.79,3895.9,4266.67,4091.79,3977.44,3635.38,4399.49,4484.62,4833.33,4476.41,4461.03,4415.38,4212.31,3900.51,1654,1690,0.469,0,0,0,0,1,0,
8,4374.87,3859.49,4278.46,4068.72,3952.82,3622.56,4386.15,4473.33,4827.18,4496.41,4440.51,4395.9,4215.38,3898.97,1654,1691,0.476,0,0,0,0,1,0,
9,4371.28,3857.95,4284.62,4040,3938.46,3616.41,4381.54,4472.31,4828.21,4450.77,4465.13,4401.03,4217.95,3891.28,1654,1692,0.484,0,0,0,0,1,0,
10,4373.33,3888.72,4275.38,4065.13,3943.08,3626.67,4391.79,4478.97,4831.79,4432.82,4484.1,4426.67,4243.08,3898.97,1653,1693,0.492,0,0,0,0,1,0,
11,4367.69,3882.05,4264.1,4071.28,3941.03,3627.69,4392.31,4474.87,4826.67,4476.92,4443.08,4412.31,4254.36,3880.51,1654,1694,0.5,0,0,0,0,1,0,
12,4356.92,3857.95,4263.59,4046.15,3943.08,3629.23,4388.72,4470.77,4824.62,4494.87,4424.1,4386.67,4247.69,3864.1,1653,1694,0.508,0,0,0,0,1,0,
13,4371.79,3874.87,4275.38,4054.87,3978.97,3642.05,4399.49,4481.03,4839.49,4482.05,4455.38,4407.18,4265.13,3906.15,1654,1693,0.516,0,0,0,0,1,0,
14,4374.36,3891.79,4268.72,4062.56,3986.67,3627.69,4394.36,4479.49,4835.9,4480,4461.03,4409.74,4276.92,3909.74,1654,1691,0.523,0,0,0,0,1,0,
15,4342.56,3870.77,4245.64,4034.87,3954.36,3607.69,4380,4468.21,4817.44,4480,4432.31,4368.72,4292.82,3840.51,1655,1692,0.531,0,0,0,0,1,0,
16,4334.36,3877.95,4243.59,4031.79,3956.92,3628.21,4395.9,4479.49,4830.26,4469.74,4442.05,4374.36,4278.46,3836.92,1657,1690,0.539,0,0,0,0,1,0,
17,4357.95,3898.46,4261.03,4056.92,3988.72,3648.72,4410.77,4498.46,4850.26,4482.56,4489.74,4418.46,4192.31,3898.97,1655,1692,0.547,0,0,0,0,1,0,
18,4366.15,3858.97,4273.33,4056.41,3981.03,3634.87,4398.46,4491.28,4838.97,4497.44,4498.97,4423.59,4154.87,3910.77,1656,1692,0.556,0,0,0,0,1,0,
19,4358.46,3833.33,4271.28,4047.18,3955.9,3629.23,4392.82,4483.08,4832.31,4486.67,4473.33,4397.44,4257.44,3871.79,1655,1693,0.562,0,0,0,0,1,0,
20,4363.59,3865.64,4272.31,4056.92,3963.08,3637.95,4401.54,4495.9,4846.67,4490.77,4477.44,4395.38,4326.15,3862.56,1654,1692,0.57,0,0,0,0,1,0,
21,4357.44,3910.26,4262.56,4060,3982.56,3629.23,4392.31,4488.72,4838.97,4500.51,4481.03,4405.13,4265.64,3881.54,1654,1693,0.578,0,0,0,0,1,0,
22,4349.74,3898.46,4258.46,4053.85,3973.85,3618.46,4378.97,4470.26,4823.59,4471.79,4475.9,4401.54,4218.46,3885.13,1654,1693,0.586,0,0,0,0,1,0,
23,4369.23,3830.77,4288.72,4066.67,3953.85,3630.77,4390.77,4481.03,4838.46,4457.95,4516.41,4412.31,4233.33,3886.67,1654,1692,0.594,0,0,0,0,1,0,
24,4371.28,3833.85,4288.21,4066.15,3957.44,3640.51,4404.62,4493.85,4848.21,4488.72,4530.77,4420.51,4240.51,3893.85,1654,1693,0.602,0,0,0,0,1,0,
25,4345.64,3910.77,4252.31,4020,3964.1,3627.69,4392.82,4478.46,4830.77,4493.33,4467.69,4395.9,4250.77,3883.59,1654,1691,0.609,0,0,0,0,1,0,
26,4341.03,3913.85,4246.15,4009.23,3958.97,3615.38,4378.46,4468.21,4822.05,4466.15,4446.67,4377.95,4266.15,3866.67,1654,1692,0.617,0,0,0,0,1,0,
27,4359.49,3839.49,4269.74,4063.08,3964.1,3618.46,4386.67,4481.03,4836.41,4471.28,4486.67,4397.44,4242.05,3869.74,1655,1690,0.626,0,0,0,0,1,0,
28,4355.9,3843.59,4266.67,4080,3982.05,3624.1,4392.31,4483.59,4835.9,4487.69,4488.72,4413.85,4196.92,3882.05,1654,1690,0.633,0,0,0,0,1,0,
29,4353.85,3907.18,4257.95,4058.97,3991.79,3627.69,4387.18,4475.38,4823.59,4482.05,4468.21,4405.13,4216.92,3890.26,1656,1689,0.641,0,0,0,0,1,0,
30,4359.49,3888.72,4268.21,4039.49,3966.15,3624.62,4384.1,4473.85,4825.13,4467.18,4469.23,4391.28,4266.67,3878.97,1654,1689,0.648,0,0,0,0,1,0,
31,4351.28,3820.51,4274.36,4024.1,3925.13,3616.92,4378.97,4473.85,4828.72,4458.46,4468.72,4388.72,4252.31,3863.08,1655,1691,0.657,0,0,0,0,1,0,
32,4344.62,3821.03,4266.15,4043.59,3927.69,3615.38,4375.38,4472.31,4825.64,4473.33,4456.41,4385.13,4260.51,3855.9,1655,1691,0.664,0,0,0,0,1,0,
33,4356.41,3873.85,4258.46,4066.67,3969.74,3620.51,4382.56,4473.33,4825.64,4495.38,4490.26,4399.49,4254.36,3873.33,1655,1692,0.672,0,0,0,0,1,0,
34,4376.41,3874.87,4278.97,4049.23,3984.1,3621.03,4387.69,4479.49,4832.82,4482.05,4532.31,4433.33,4187.69,3910.77,1654,1692,0.681,0,0,0,0,1,0,
35,4367.69,3857.44,4290.77,4037.44,3948.21,3623.59,4384.62,4476.41,4830.77,4462.05,4488.21,4426.15,4221.03,3901.54,1655,1693,0.688,0,0,0,0,1,0,
36,4342.05,3854.36,4264.1,4047.18,3912.82,3615.9,4375.38,4455.38,4811.79,4453.85,4449.74,4392.31,4261.03,3860,1654,1691,0.695,0,0,0,0,1,0,
37,4337.95,3852.31,4252.82,4035.38,3943.08,3610.26,4373.85,4455.38,4813.85,4446.15,4459.49,4388.21,4234.36,3849.23,1654,1691,0.703,0,0,0,0,1,0,
38,4359.49,3872.82,4278.46,4033.85,4002.05,3626.67,4389.23,4486.15,4841.03,4454.36,4461.54,4404.62,4263.08,3869.23,1655,1689,0.711,0,0,0,0,1,0,
39,4370.77,3878.46,4287.18,4056.92,3996.92,3634.36,4394.87,4492.82,4843.08,4473.33,4471.28,4413.85,4256.41,3888.72,1653,1689,0.719,0,0,0,0,1,0,
40,4356.41,3863.08,4263.08,4067.18,3966.15,3628.72,4387.69,4473.85,4824.62,4477.44,4491.28,4405.64,4189.23,3887.69,1654,1688,0.727,0,0,0,0,1,0,
41,4347.69,3868.21,4254.36,4051.79,3966.67,3633.33,4388.21,4470.77,4823.59,4472.82,4475.9,4388.72,4223.08,3866.15,1653,1688,0.734,0,0,0,0,1,0,
42,4360,3872.31,4267.18,4035.38,3971.28,3635.9,4387.69,4473.85,4828.21,4473.33,4466.15,4389.23,4290.26,3857.95,1654,1690,0.742,0,0,0,0,1,0,
43,4381.03,3859.49,4277.95,4051.28,3968.72,3630.77,4384.1,4479.49,4835.38,4475.38,4515.9,4418.46,4240.51,3892.31,1654,1689,0.75,0,0,0,0,1,0,
44,4377.44,3870.77,4280.51,4057.95,3962.56,3633.33,4386.67,4486.67,4841.54,4474.36,4536.41,4439.49,4178.97,3909.23,1654,1692,0.758,0,0,0,0,1,0,
45,4360,3875.9,4282.56,4050.26,3961.03,3625.64,4383.08,4480.51,4831.28,4484.62,4486.67,4420.51,4227.18,3878.46,1655,1692,0.766,0,0,0,0,1,0,
46,4353.85,3865.64,4276.41,4057.44,3982.56,3614.87,4380,4475.38,4827.18,4513.33,4442.05,4380,4328.21,3855.9,1655,1693,0.774,0,0,0,0,1,0,
47,4349.74,3862.56,4254.87,4049.74,3974.36,3623.08,4384.62,4475.38,4829.23,4503.08,4455.38,4377.44,4284.62,3867.18,1654,1692,0.781,0,0,0,0,1,0,
48,4338.97,3836.92,4241.54,4036.41,3933.33,3625.13,4375.38,4458.97,4813.33,4443.59,4469.23,4393.85,4179.49,3860.51,1655,1692,0.789,0,0,0,0,1,0,
49,4338.97,3834.87,4251.28,4043.08,3956.41,3619.49,4372.31,4456.92,4812.31,4445.64,4454.87,4385.13,4218.97,3842.56,1655,1690,0.797,0,0,0,0,1,0,
50,4353.85,3880,4264.62,4044.1,4010.26,3624.62,4387.18,4478.46,4833.85,4496.92,4483.59,4392.82,4237.44,3864.62,1653,1691,0.805,0,0,0,0,1,0,
51,4369.23,3885.13,4272.31,4044.1,3995.9,3630.77,4391.79,4483.08,4836.41,4500,4514.36,4413.85,4211.79,3887.69,1655,1691,0.813,0,0,0,0,1,0,
52,4375.38,3860,4284.1,4060.51,3960,3635.9,4393.85,4483.59,4827.69,4466.15,4504.1,4420.51,4252.31,3888.21,1654,1690,0.82,0,0,0,0,1,0,
53,4366.15,3863.08,4283.08,4056.92,3956.92,3641.03,4401.03,4496.92,4832.82,4445.64,4485.13,4426.67,4235.38,3893.33,1654,1691,0.828,0,0,0,0,1,0,
54,4355.38,3835.38,4270.77,4043.08,3955.38,3627.18,4393.33,4490.26,4831.28,4451.79,4464.1,4423.08,4175.38,3891.28,1654,1690,0.836,0,0,0,0,1,0,
55,4348.72,3817.95,4262.56,4035.38,3961.54,3616.41,4383.59,4475.9,4825.64,4476.92,4448.72,4401.54,4222.05,3873.33,1654,1691,0.844,0,0,0,0,1,0,
56,4340.51,3876.92,4254.36,4034.36,3986.15,3630.77,4393.85,4484.1,4834.87,4508.72,4456.41,4384.62,4292.31,3856.41,1655,1691,0.852,0,0,0,0,1,0,
57,4341.03,3892.82,4252.82,4048.21,3995.38,3641.54,4403.08,4495.38,4845.13,4524.62,4471.28,4378.97,4300,3843.59,1654,1692,0.86,0,0,0,0,1,0,
58,4349.23,3854.36,4261.03,4058.46,3992.82,3636.92,4397.95,4497.44,4846.15,4517.44,4476.41,4381.54,4304.1,3844.62,1654,1693,0.867,0,0,0,0,1,0,
59,4356.41,3861.03,4266.15,4049.23,3988.72,3631.79,4393.85,4496.92,4843.59,4496.41,4493.85,4401.54,4263.59,3870.26,1654,1694,0.875,0,0,0,0,1,0,
60,4357.44,3882.05,4262.05,4027.18,3980,3631.28,4394.87,4493.85,4842.05,4485.13,4494.87,4411.28,4212.82,3884.62,1654,1693,0.883,0,0,0,0,1,0,
61,4358.46,3857.44,4265.13,4030.26,3973.85,3636.41,4400,4493.33,4843.59,4491.79,4468.21,4393.85,4267.18,3865.64,1654,1693,0.891,0,0,0,0,1,0,
62,4364.1,3826.67,4279.49,4056.41,3955.9,3632.82,4395.9,4495.38,4839.49,4473.33,4484.1,4398.97,4275.9,3866.67,1655,1690,0.899,0,0,0,0,1,0,
63,4364.1,3830.77,4280,4050.77,3932.82,3614.36,4383.08,4490.26,4826.67,4439.49,4528.72,4426.15,4146.67,3892.31,1655,1691,0.907,0,0,0,0,1,0,
64,4355.9,3853.33,4264.1,4032.31,3951.79,3617.44,4388.72,4488.72,4828.72,4446.67,4513.85,4420,4147.18,3886.67,1656,1689,0.914,0,0,0,0,1,0,
65,4358.97,3851.28,4260.51,4045.64,3981.54,3640,4403.59,4495.9,4847.69,4484.1,4453.85,4384.1,4315.38,3857.44,1655,1690,0.922,0,0,0,0,1,0,
66,4355.9,3834.87,4266.67,4042.05,3971.79,3637.95,4398.46,4493.33,4843.08,4491.28,4448.72,4374.87,4310.26,3856.41,1655,1689,0.93,0,0,0,0,1,0,
67,4341.54,3847.69,4257.44,4012.31,3971.28,3624.62,4390.26,4488.72,4824.62,4472.82,4480,4393.33,4198.97,3868.21,1654,1690,0.938,0,0,0,0,1,0,
68,4347.18,3853.33,4252.31,4030.77,3985.64,3626.15,4398.97,4493.33,4833.85,4473.85,4475.38,4395.9,4256.41,3859.49,1654,1689,0.946,0,0,0,0,1,0,
69,4348.72,3830.26,4254.87,4045.13,3963.08,3625.64,4396.92,4493.85,4845.13,4481.03,4458.97,4380,4311.28,3843.59,1653,1690,0.953,0,0,0,0,1,0,
70,4337.44,3822.56,4254.36,4016.41,3948.72,3620.51,4382.05,4489.23,4834.87,4474.36,4462.56,4381.54,4232.31,3848.21,1655,1690,0.961,0,0,0,0,1,0,
71,4350.26,3840.51,4259.49,4025.64,3976.92,3624.62,4380.51,4491.28,4830.26,4464.1,4471.79,4403.08,4210.77,3876.92,1654,1689,0.969,0,0,0,0,1,0,
72,4365.64,3833.85,4271.28,4056.92,3970.77,3619.49,4385.13,4489.74,4837.44,4444.1,4482.56,4409.23,4229.74,3895.9,1654,1691,0.977,0,0,0,0,1,0,
73,4350.77,3797.44,4269.23,4035.9,3928.21,3606.67,4380,4475.38,4829.23,4431.79,4477.95,4391.79,4200.51,3876.92,1655,1689,0.985,0,0,0,0,1,0,
74,4330.77,3808.72,4248.72,4011.28,3944.1,3611.28,4377.95,4468.21,4811.28,4435.9,4430.26,4375.38,4219.49,3838.46,1655,1690,0.992,0,0,0,0,1,0,
75,4336.41,3853.33,4244.1,4042.05,3997.95,3624.62,4385.64,4477.44,4821.03,4433.85,4404.1,4371.28,4267.69,3829.74,1656,1689,1,0,0,0,0,1,0,
76,4354.36,3829.23,4260,4046.67,3976.41,3619.49,4382.05,4474.87,4830.26,4428.72,4449.23,4384.1,4209.23,3863.59,1656,1689,1.008,0,0,0,0,1,0,
77,4346.67,3795.38,4254.36,4014.36,3932.31,3608.72,4373.85,4457.95,4813.85,4437.44,4458.46,4382.05,4179.49,3856.41,1656,1689,1.016,0,0,0,0,1,0,
78,4331.28,3833.33,4237.95,4023.08,3958.97,3616.92,4378.97,4457.95,4808.72,4449.74,4424.62,4364.1,4261.03,3829.23,1656,1691,1.024,0,0,0,0,1,0,
79,4354.36,3852.31,4263.59,4038.46,3985.13,3628.72,4387.18,4476.41,4829.23,4460.51,4455.38,4383.59,4266.67,3869.23,1657,1691,1.032,0,0,0,0,1,0,
80,4372.82,3809.23,4287.18,4032.31,3940.51,3621.03,4383.59,4481.03,4836.41,4463.59,4488.72,4406.15,4217.95,3896.41,1655,1692,1.039,0,0,0,0,1,0,
81,4343.08,3792.82,4259.49,4026.67,3910.26,3604.1,4371.28,4464.62,4820,4434.87,4461.03,4386.15,4211.79,3858.97,1657,1693,1.047,0,0,0,0,1,0,
82,4329.23,3827.18,4244.1,4018.46,3953.33,3607.69,4372.31,4469.23,4829.74,4424.62,4456.92,4378.97,4230.26,3853.85,1655,1692,1.055,0,0,0,0,1,0,
83,4353.85,3853.33,4264.1,4023.59,3988.72,3625.64,4385.64,4494.36,4851.28,4469.74,4480,4399.49,4254.36,3874.36,1655,1693,1.063,0,0,0,0,1,0,
84,4359.49,3838.46,4270.26,4044.1,3957.44,3620.51,4383.59,4489.23,4841.54,4487.18,4464.62,4397.44,4252.82,3861.54,1656,1691,1.071,0,0,0,0,1,0,
85,4338.97,3825.64,4251.28,4033.33,3937.95,3606.15,4369.74,4463.59,4820.51,4456.41,4438.46,4374.36,4248.72,3854.36,1655,1691,1.079,0,0,0,0,1,0,
86,4328.21,3831.79,4238.46,4006.15,3975.38,3613.85,4372.82,4465.13,4823.59,4451.79,4445.64,4368.72,4270.26,3862.05,1655,1690,1.086,0,0,0,0,1,0,
87,4336.41,3819.49,4252.31,4024.1,3991.79,3627.18,4385.64,4481.54,4837.95,4467.18,4470.26,4378.46,4273.85,3858.97,1654,1691,1.094,0,0,0,0,1,0,
88,4349.74,3816.92,4265.64,4043.08,3954.36,3623.59,4382.05,4476.92,4833.85,4450.77,4469.74,4385.13,4227.69,3860,1655,1691,1.102,0,0,0,0,1,0,
89,4352.31,3845.13,4254.36,4026.15,3943.59,3619.49,4378.97,4470.77,4826.67,4433.85,4461.54,4388.72,4200,3870.26,1654,1692,1.11,0,0,0,0,1,0,
90,4346.15,3845.64,4243.08,4013.33,3973.85,3623.59,4383.59,4475.9,4829.23,4449.23,4472.31,4390.26,4230.26,3875.38,1654,1692,1.118,0,0,0,0,1,0,
91,4346.67,3818.46,4256.41,4015.9,3975.38,3617.95,4380,4476.41,4833.33,4468.72,4468.72,4383.08,4276.92,3863.59,1653,1692,1.125,0,0,0,0,1,0,
92,4358.97,3824.62,4271.28,4034.87,3947.18,3612.31,4373.85,4473.85,4833.85,4470.77,4459.49,4386.67,4265.13,3868.72,1655,1693,1.133,0,0,0,0,1,0,
93,4354.36,3828.21,4261.54,4033.33,3933.85,3616.41,4371.79,4470.26,4825.64,4453.33,4464.1,4395.9,4218.46,3885.13,1653,1691,1.141,0,0,0,0,1,0,
94,4341.54,3804.1,4252.31,4011.28,3953.33,3614.36,4370.26,4471.79,4827.18,4435.38,4470.77,4395.38,4216.92,3884.62,1653,1693,1.149,0,0,0,0,1,0,
95,4352.82,3809.23,4263.08,4021.54,3984.62,3615.38,4376.92,4488.72,4850.26,4452.82,4485.13,4401.54,4235.9,3884.62,1654,1692,1.157,0,0,0,0,1,0,
96,4360,3836.92,4261.54,4036.41,3964.1,3621.54,4380,4494.36,4851.28,4477.95,4489.74,4396.41,4269.23,3877.44,1653,1693,1.165,0,0,0,0,1,0,
97,4349.23,3829.23,4248.72,4015.9,3912.31,3614.87,4368.72,4473.85,4819.49,4459.49,4459.49,4373.85,4293.33,3863.59,1654,1691,1.172,0,0,0,0,1,0,
98,4344.1,3801.54,4247.69,4000.51,3924.1,3601.03,4360.51,4457.44,4808.72,4428.21,4441.54,4375.38,4218.97,3874.87,1654,1691,1.181,0,0,0,0,1,0,
99,4347.69,3802.05,4252.31,4013.33,3977.95,3608.21,4371.79,4468.72,4827.69,4428.21,4469.74,4391.28,4157.44,3885.13,1655,1689,1.188,0,0,0,0,1,0,
100,4346.15,3803.59,4256.41,4014.36,3966.15,3623.59,4381.54,4473.85,4831.79,4434.36,4474.36,4378.46,4237.95,3860.51,1654,1689,1.196,0,0,0,0,1,0,
101,4348.21,3814.87,4262.56,4016.92,3931.28,3618.97,4373.33,4461.03,4823.08,4425.64,4462.56,4383.59,4258.97,3865.13,1655,1691,1.204,0,0,0,0,1,0,
102,4360,3836.41,4264.62,4038.97,3947.69,3614.87,4369.23,4463.08,4829.74,4433.33,4473.85,4412.82,4197.44,3895.38,1654,1692,1.211,0,0,0,0,1,0,
103,4367.69,3817.44,4267.18,4041.54,3960.51,3623.08,4373.33,4474.87,4831.79,4457.44,4469.74,4401.03,4234.87,3885.64,1654,1692,1.22,0,0,0,0,1,0,
104,4368.21,3812.82,4270.26,4030.26,3968.21,3628.21,4376.92,4478.97,4828.21,4469.23,4467.69,4389.23,4278.46,3879.49,1654,1691,1.227,0,0,0,0,1,0,
105,4358.46,3850.26,4254.36,4023.08,3971.28,3622.05,4373.33,4479.49,4837.44,4461.54,4476.41,4399.49,4240.51,3891.79,1654,1692,1.235,0,0,0,0,1,0,
106,4348.72,3847.18,4244.1,4013.85,3946.67,3616.41,4363.59,4476.92,4837.44,4447.69,4449.74,4383.08,4225.64,3875.9,1654,1690,1.243,0,0,0,0,1,0,
107,4353.33,3811.79,4262.05,4012.31,3942.56,3620.51,4366.67,4474.87,4828.21,4461.03,4430.77,4370.26,4254.87,3862.05,1653,1692,1.251,0,0,0,0,1,0,
108,4367.18,3808.72,4277.44,4031.79,3954.87,3625.13,4376.92,4476.92,4826.15,4453.33,4492.31,4407.69,4214.36,3896.92,1655,1692,1.258,0,0,0,0,1,0,
109,4355.38,3810.26,4255.38,4027.18,3939.49,3617.95,4371.79,4468.21,4821.54,4412.31,4508.21,4413.33,4182.56,3893.33,1653,1691,1.266,0,0,0,0,1,0,
110,4336.41,3818.46,4236.41,4004.62,3954.87,3621.54,4370.26,4462.05,4817.95,4427.69,4446.15,4369.23,4233.33,3841.03,1654,1692,1.274,0,0,0,0,1,0,
111,4351.28,3843.08,4257.44,4013.33,3988.21,3636.41,4385.13,4474.36,4827.18,4471.79,4440.51,4369.23,4255.9,3846.67,1654,1691,1.282,0,0,0,0,1,0,
112,4351.79,3822.56,4255.38,4011.79,3950.77,3627.18,4380.51,4470.26,4820.51,4450.26,4447.69,4380,4229.23,3863.08,1654,1691,1.29,0,0,0,0,1,0,
113,4335.9,3791.28,4234.36,4008.21,3938.97,3621.54,4368.72,4459.49,4810.77,4425.13,4427.69,4369.74,4213.33,3858.97,1654,1690,1.297,0,0,0,0,1,0,
114,4347.69,3811.28,4245.64,4043.59,3977.44,3635.38,4373.85,4469.23,4824.62,4450.26,4450.77,4378.46,4205.64,3875.9,1654,1690,1.305,0,0,0,0,1,0,
115,4349.74,3817.44,4252.82,4029.74,3935.38,3615.9,4361.03,4462.05,4819.49,4442.05,4468.21,4377.44,4197.95,3865.64,1654,1691,1.313,0,0,0,0,1,0,
116,4334.87,3802.56,4243.59,3968.21,3899.49,3594.87,4348.72,4451.79,4806.15,4420,4439.49,4363.59,4233.33,3836.41,1655,1692,1.321,0,0,0,0,1,0,
117,4352.82,3821.03,4260,3992.31,3957.44,3622.56,4369.23,4474.36,4822.56,4441.54,4444.1,4392.31,4229.23,3877.95,1654,1692,1.329,0,0,0,0,1,0,
118,4361.03,3835.38,4262.56,4055.38,3969.74,3636.41,4374.87,4477.44,4824.1,4445.64,4461.54,4413.33,4166.67,3904.62,1654,1692,1.337,0,0,0,0,1,0,
119,4335.9,3820,4236.92,4037.44,3936.41,3613.85,4356.92,4455.9,4810.26,4440,4441.03,4381.03,4197.44,3855.38,1654,1691,1.344,0,0,0,0,1,0,
120,4352.31,3800.51,4256.92,4009.23,3955.38,3614.36,4366.15,4467.69,4824.1,4458.46,4444.1,4382.56,4244.62,3868.72,1655,1691,1.352,0,0,0,0,1,0,
121,4376.92,3806.67,4279.49,4021.54,3961.54,3633.33,4386.67,4486.15,4835.38,4460,4460,4407.69,4226.67,3912.31,1654,1690,1.36,0,0,0,0,1,0,
122,4350.77,3826.15,4254.36,4016.92,3930.77,3631.28,4375.9,4470.26,4821.54,4437.95,4451.79,4391.79,4202.56,3881.03,1655,1690,1.368,0,0,0,0,1,0,
123,4332.31,3828.72,4244.62,4005.13,3945.13,3616.92,4361.03,4461.03,4822.56,4452.82,4451.79,4375.38,4230.77,3848.72,1655,1690,1.376,0,0,0,0,1,0,
124,4353.85,3817.95,4266.15,4015.9,3979.49,3615.9,4367.18,4471.79,4833.33,4490.77,4465.13,4385.64,4280.51,3869.23,1654,1692,1.384,0,0,0,0,1,0,
125,4362.56,3827.18,4267.18,4024.62,3971.79,3629.23,4376.92,4470.77,4820,4492.82,4467.18,4394.36,4260.51,3888.21,1655,1691,1.391,0,0,0,0,1,0,
126,4357.95,3856.92,4257.44,4026.67,3958.97,3640.51,4380,4470.26,4816.92,4474.36,4468.72,4396.41,4228.72,3887.18,1654,1693,1.399,0,0,0,0,1,0,
127,4372.31,3849.23,4273.33,4031.28,3960.51,3633.85,4380.51,4478.46,4832.31,4461.54,4477.95,4401.54,4265.64,3896.41,1656,1692,1.407,0,0,0,0,1,0,
128,4373.85,3818.97,4281.03,4029.23,3947.69,3621.03,4372.31,4475.38,4824.1,4454.36,4481.03,4403.59,4247.18,3894.87,1654,1693,1.415,0,0,0,0,1,0,
0,4360,3804.62,4265.13,4030.26,3931.79,3618.97,4363.08,4470.77,4812.82,4460.51,4469.74,4401.54,4172.82,3883.59,1655,1695,1.423,0,0,0,0,1,0,
1,4353.85,3815.9,4250.26,4027.18,3945.64,3621.54,4363.59,4473.33,4823.08,4465.64,4451.79,4389.23,4231.28,3881.03,1655,1694,1.43,0,0,0,0,1,0,
2,4351.79,3846.67,4247.18,4012.82,3976.92,3618.97,4367.18,4465.64,4823.08,4457.95,4450.26,4376.92,4293.85,3873.33,1655,1694,1.438,0,0,0,0,1,0,
3,4347.18,3851.79,4253.85,4008.72,3974.87,3620.51,4370.26,4461.03,4816.92,4462.05,4469.23,4383.59,4234.36,3864.62,1655,1692,1.446,0,0,0,0,1,0,
4,4350.26,3831.28,4262.05,4015.9,3951.79,3620,4370.77,4471.28,4825.64,4471.28,4483.08,4396.92,4196.41,3877.44,1655,1692,1.454,0,0,0,0,1,0,
5,4360,3812.82,4267.69,4028.72,3957.95,3624.1,4376.41,4475.9,4829.23,4463.08,4491.79,4408.21,4201.54,3894.36,1656,1690,1.462,0,0,0,0,1,0,
6,4355.9,3815.9,4261.03,4043.59,3979.49,3637.95,4384.1,4474.87,4827.69,4458.97,4471.28,4394.87,4239.49,3869.74,1655,1691,1.47,0,0,0,0,1,0,
7,4340.51,3844.62,4244.62,4022.56,3964.1,3630.26,4374.87,4471.79,4823.08,4452.31,4427.69,4376.41,4246.15,3864.62,1655,1690,1.477,0,0,0,0,1,0,
8,4335.9,3853.33,4239.49,3993.33,3938.97,3615.9,4361.03,4461.03,4811.28,4433.33,4428.21,4386.15,4192.31,3902.05,1655,1691,1.485,0,0,0,0,1,0,
9,4352.82,3817.95,4255.9,4029.74,3952.82,3622.56,4364.62,4455.9,4815.9,4433.33,4462.56,4398.46,4201.03,3902.05,1656,1691,1.493,0,0,0,0,1,0,
10,4364.62,3805.64,4270.77,4056.41,3968.21,3625.64,4368.72,4465.13,4832.82,4454.87,4468.72,4388.21,4285.64,3876.92,1654,1691,1.501,0,0,0,0,1,0,
11,4352.31,3852.82,4265.64,4011.28,3959.49,3622.56,4367.69,4469.23,4827.69,4464.62,4447.69,4377.95,4275.9,3876.41,1655,1693,1.509,0,0,0,0,1,0,
12,4343.59,3852.82,4259.49,3991.28,3961.03,3636.41,4378.46,4475.38,4823.08,4459.49,4455.9,4396.92,4210.77,3885.64,1655,1690,1.516,0,0,0,0,1,0,
13,4355.9,3818.46,4262.56,4032.31,3974.36,3641.03,4386.15,4488.72,4830.77,4458.97,4470.77,4409.74,4224.1,3892.31,1654,1690,1.524,0,0,0,0,1,0,
14,4369.74,3843.08,4271.28,4058.46,3979.49,3633.85,4382.56,4492.82,4833.33,4468.21,4460.51,4404.1,4226.15,3914.87,1654,1689,1.532,0,0,0,0,1,0,
15,4358.97,3855.38,4271.28,4028.72,3963.59,3635.38,4380.51,4490.77,4831.28,4481.54,4465.64,4397.95,4215.9,3911.28,1654,1690,1.54,0,0,0,0,1,0,
16,4342.56,3815.38,4261.03,4008.21,3937.44,3626.15,4374.36,4490.26,4828.21,4480,4474.36,4389.74,4243.08,3874.36,1654,1690,1.548,0,0,0,0,1,0,
17,4347.69,3813.33,4257.95,4021.03,3935.38,3617.95,4366.67,4490.77,4833.85,4477.44,4465.13,4386.15,4258.46,3878.97,1654,1690,1.555,0,0,0,0,1,0,
18,4353.85,3861.54,4262.05,4024.62,3966.15,3624.62,4364.1,4490.26,4842.56,4480,4457.44,4392.82,4237.95,3901.54,1656,1690,1.563,0,0,0,0,1,0,
19,4351.28,3867.69,4262.05,4035.38,3997.44,3632.82,4368.21,4491.28,4838.46,4482.56,4467.18,4400,4227.69,3897.95,1653,1691,1.571,0,0,0,0,1,0,
20,4362.05,3821.54,4263.08,4061.03,3982.05,3643.08,4374.36,4490.77,4828.72,4485.13,4465.64,4393.33,4255.38,3887.69,1655,1691,1.579,0,0,0,0,1,0,
21,4365.13,3800,4264.62,4036.92,3950.26,3640.51,4366.67,4480.51,4821.03,4472.31,4450.77,4384.1,4255.38,3884.1,1655,1690,1.587,0,0,0,0,1,0,
22,4343.59,3833.85,4261.03,3985.13,3967.18,3623.59,4358.46,4474.87,4822.56,4462.05,4460,4390.77,4220,3884.1,1655,1692,1.595,0,0,0,0,1,0,
23,4335.9,3855.38,4258.97,4006.15,3972.31,3620,4365.13,4478.46,4826.67,4474.87,4468.21,4396.41,4218.46,3883.08,1655,1691,1.602,0,0,0,0,1,0,
24,4346.67,3834.36,4261.03,4048.21,3933.85,3625.13,4363.08,4476.41,4820.51,4470.26,4454.87,4388.72,4248.21,3884.1,1654,1692,1.61,0,0,0,0,1,0,
25,4344.1,3839.49,4260,4022.56,3946.67,3622.56,4354.36,4473.33,4816.41,4449.74,4441.03,4384.62,4228.72,3885.13,1655,1691,1.618,0,0,0,0,1,0,
26,4348.72,3827.69,4263.08,4010.26,3983.59,3632.31,4372.31,4489.23,4832.31,4473.33,4454.36,4395.9,4197.44,3885.64,1654,1691,1.626,0,0,0,0,1,0,
27,4360,3788.21,4267.69,4041.54,3958.46,3640,4382.56,4496.92,4832.82,4494.36,4473.85,4396.92,4230.26,3885.64,1655,1690,1.634,0,0,0,0,1,0,
28,4343.59,3818.46,4257.44,4025.64,3948.21,3625.13,4361.54,4480.51,4813.33,4468.21,4458.97,4383.59,4262.56,3885.13,1654,1691,1.642,0,0,0,0,1,0,
29,4331.28,3856.92,4247.18,3988.21,3974.87,3617.44,4356.41,4474.36,4814.87,4451.79,4445.13,4389.74,4249.74,3888.72,1655,1691,1.649,0,0,0,0,1,0,
30,4342.05,3826.15,4251.79,4005.64,3960,3623.59,4365.13,4477.95,4821.03,4448.72,4445.64,4390.26,4232.31,3871.79,1653,1693,1.657,0,0,0,0,1,0,
31,4344.62,3822.05,4256.41,4034.36,3956.41,3627.69,4358.46,4473.85,4818.46,4450.77,4461.54,4380,4217.44,3861.54,1654,1694,1.665,0,0,0,0,1,0,
32,4348.72,3851.28,4261.03,4035.9,3988.72,3633.85,4357.44,4473.85,4823.59,4469.74,4477.44,4391.28,4221.03,3889.23,1653,1693,1.673,0,0,0,0,1,0,
33,4366.67,3834.36,4273.85,4040.51,3975.9,3642.05,4366.15,4477.95,4828.21,4467.18,4484.1,4409.74,4213.85,3915.9,1653,1694,1.681,0,0,0,0,1,0,
34,4368.72,3837.44,4276.92,4025.64,3956.92,3636.92,4362.56,4475.9,4825.64,4448.72,4493.33,4415.38,4188.21,3920,1654,1692,1.688,0,0,0,0,1,0,
35,4350.77,3847.18,4265.13,4015.38,3966.15,3628.21,4357.95,4476.92,4827.69,4457.95,4470.77,4396.41,4229.23,3897.95,1653,1693,1.696,0,0,0,0,1,0,
36,4351.79,3811.79,4262.05,4048.21,3950.26,3617.95,4352.31,4476.41,4829.23,4453.33,4443.59,4380,4263.59,3880.51,1654,1691,1.704,0,0,0,0,1,0,
37,4364.1,3819.49,4267.18,4049.74,3938.46,3607.18,4344.1,4475.38,4827.18,4438.46,4452.31,4397.44,4225.64,3893.33,1655,1691,1.712,0,0,0,0,1,0,
38,4360,3864.62,4262.05,4016.92,3971.79,3623.08,4357.95,4484.1,4830.26,4468.21,4458.97,4407.69,4231.79,3897.95,1655,1690,1.72,0,0,0,0,1,0,
39,4348.21,3848.72,4254.36,4009.74,3979.49,3642.56,4371.79,4484.1,4821.03,4481.03,4436.92,4376.41,4287.69,3865.13,1654,1690,1.728,0,0,0,0,1,0,
40,4345.13,3811.28,4260.51,4004.62,3945.13,3625.64,4357.44,4469.23,4807.69,4458.46,4441.54,4360.51,4270.77,3854.36,1655,1690,1.735,0,0,0,0,1,0,
41,4350.77,3826.15,4264.62,4005.64,3954.87,3612.82,4352.31,4471.79,4817.44,4469.74,4480,4391.28,4220,3891.28,1655,1690,1.743,0,0,0,0,1,0,
42,4358.97,3843.08,4261.03,4042.56,3989.23,3640.51,4373.85,4493.33,4836.92,4496.92,4474.87,4397.44,4257.44,3896.92,1654,1691,1.751,0,0,0,0,1,0,
43,4366.67,3843.59,4261.54,4051.28,3976.41,3651.79,4375.38,4492.82,4833.33,4486.15,4458.46,4388.72,4250.77,3887.69,1654,1692,1.759,0,0,0,0,1,0,
44,4367.18,3843.59,4265.13,4023.08,3947.69,3629.23,4352.82,4475.38,4817.95,4458.97,4484.1,4407.69,4164.62,3904.62,1655,1692,1.767,0,0,0,0,1,0,
45,4368.21,3828.21,4263.59,4018.97,3946.15,3626.15,4347.18,4472.82,4820,4455.38,4493.85,4407.69,4189.74,3909.23,1654,1692,1.774,0,0,0,0,1,0,
46,4367.69,3809.23,4265.64,4018.97,3944.1,3626.15,4349.74,4475.9,4824.1,4446.67,4453.85,4382.05,4267.69,3895.9,1654,1690,1.782,0,0,0,0,1,0,
47,4353.33,3812.82,4265.64,4009.23,3938.97,3610.26,4344.1,4472.82,4823.08,4447.69,4438.97,4375.38,4261.03,3878.97,1654,1690,1.79,0,0,0,0,1,0,
48,4342.05,3836.92,4249.23,4022.56,3973.33,3618.46,4346.15,4472.82,4825.64,4481.03,4458.46,4377.44,4252.31,3866.67,1655,1689,1.798,0,0,0,0,1,0,
49,4355.38,3861.03,4247.69,4033.33,3997.95,3640,4357.95,4476.92,4820,4490.77,4475.38,4381.54,4242.56,3878.46,1654,1689,1.806,0,0,0,0,1,0,
50,4360.51,3838.46,4263.59,4019.49,3948.72,3631.79,4353.85,4474.36,4811.28,4461.54,4476.92,4388.72,4197.95,3883.59,1654,1690,1.814,0,0,0,0,1,0,
51,4342.56,3802.05,4254.87,4019.49,3921.54,3614.36,4341.54,4472.82,4821.03,4445.13,4439.49,4373.33,4235.9,3861.03,1654,1689,1.821,0,0,0,0,1,0,
52,4337.95,3836.92,4240,4021.03,3969.23,3618.97,4341.54,4475.38,4827.69,4458.46,4416.41,4361.54,4292.82,3863.08,1654,1691,1.829,0,0,0,0,1,0,
53,4360,3863.08,4258.46,4027.18,3996.41,3624.62,4345.64,4473.85,4815.9,4478.46,4468.72,4385.13,4257.44,3890.26,1654,1690,1.837,0,0,0,0,1,0,
54,4361.54,3834.87,4260,4041.03,3976.41,3620.51,4342.56,4463.59,4809.74,4476.92,4492.82,4389.23,4229.74,3886.15,1653,1692,1.845,0,0,0,0,1,0,
55,4338.46,3836.92,4231.79,4023.08,3965.64,3620.51,4338.97,4456.92,4811.79,4453.33,4452.82,4370.77,4216.41,3870.26,1656,1691,1.853,0,0,0,0,1,0,
56,4349.23,3844.62,4247.69,4019.49,3964.1,3627.18,4347.18,4466.67,4814.87,4462.05,4460.51,4385.13,4194.87,3889.74,1655,1692,1.86,0,0,0,0,1,0,
57,4376.41,3816.41,4282.56,4046.15,3957.44,3632.82,4353.85,4476.92,4825.13,4487.18,4490.26,4405.64,4213.85,3918.97,1656,1693,1.868,0,0,0,0,1,0,
58,4366.15,3815.9,4267.18,4027.18,3946.15,3617.95,4342.05,4475.38,4829.23,4450.26,4464.1,4395.38,4220,3911.28,1656,1692,1.876,0,0,0,0,1,0,
59,4337.95,3826.15,4243.59,3986.15,3931.28,3603.59,4335.38,4469.23,4821.03,4434.36,4430.77,4374.87,4240,3867.18,1656,1691,1.884,0,0,0,0,1,0,
60,4345.13,3803.59,4252.31,4017.95,3945.13,3613.85,4343.08,4463.59,4814.36,4481.03,4447.69,4374.36,4274.36,3852.82,1656,1691,1.892,0,0,0,0,1,0,
61,4361.03,3824.1,4251.79,4045.64,3957.95,3616.41,4337.95,4455.38,4808.21,4471.79,4472.82,4389.74,4202.05,3888.72,1656,1691,1.9,0,0,0,0,1,0,
62,4349.74,3852.82,4243.59,4007.18,3947.18,3607.69,4332.31,4454.87,4813.85,4436.92,4463.59,4389.74,4179.49,3897.44,1655,1691,1.907,0,0,0,0,1,0,
63,4349.74,3832.31,4260,4006.67,3965.64,3618.97,4348.21,4472.31,4829.74,4470.26,4450.77,4386.15,4270.26,3887.18,1655,1692,1.915,0,0,0,0,1,0,
64,4356.92,3829.23,4258.97,4039.49,3974.36,3627.18,4351.28,4475.38,4822.05,4480.51,4436.41,4386.15,4245.64,3885.13,1656,1690,1.923,0,0,0,0,1,0,
65,4343.08,3851.28,4232.82,4032.31,3951.28,3617.44,4336.41,4461.03,4805.64,4445.13,4431.79,4375.38,4181.03,3873.85,1654,1691,1.931,0,0,0,0,1,0,
66,4340.51,3837.44,4235.38,4019.49,3955.38,3620.51,4345.13,4467.18,4816.92,4466.67,4462.05,4371.28,4248.72,3867.69,1655,1690,1.939,0,0,0,0,1,0,
67,4365.64,3813.85,4256.41,4034.36,3973.85,3626.67,4356.92,4483.59,4832.82,4505.64,4481.54,4386.15,4285.13,3881.54,1654,1691,1.947,0,0,0,0,1,0,
68,4371.28,3850.77,4256.41,4031.28,3968.21,3622.56,4348.21,4480.51,4830.77,4494.87,4461.54,4391.28,4248.72,3883.59,1654,1691,1.954,0,0,0,0,1,0,
69,4361.54,3851.79,4256.41,4009.23,3945.13,3616.41,4341.54,4468.72,4817.95,4473.33,4452.31,4384.1,4263.08,3879.49,1654,1692,1.962,0,0,0,0,1,0,
70,4370.26,3794.87,4271.79,4022.05,3932.31,3608.21,4342.05,4471.28,4815.38,4457.44,4459.49,4392.31,4264.1,3897.44,1653,1693,1.97,0,0,0,0,1,0,
71,4367.69,3811.28,4265.13,4035.38,3951.79,3611.28,4343.59,4482.05,4830.77,4455.38,4463.59,4397.44,4236.92,3899.49,1653,1692,1.978,0,0,0,0,1,0,
72,4353.33,3877.95,4247.69,4025.64,3978.46,3624.62,4350.77,4489.23,4841.03,4485.64,4488.72,4398.46,4220,3899.49,1654,1693,1.986,0,0,0,0,1,0,
73,4363.08,3867.69,4256.92,4030.26,3950.26,3623.08,4353.33,4482.56,4830.26,4505.13,4502.56,4403.08,4217.95,3912.82,1654,1693,1.993,0,0,0,0,1,0,
74,4378.97,3821.03,4275.9,4030.77,3929.74,3616.92,4349.23,4475.9,4824.62,4486.67,4487.18,4407.18,4238.97,3917.44,1654,1693,2.001,0,0,0,0,1,0,
75,4368.21,3822.56,4267.69,4014.87,3964.1,3623.08,4350.26,4482.05,4830.26,4482.56,4477.95,4405.13,4262.56,3909.23,1655,1691,2.009,0,0,0,0,1,0,
76,4350.26,3821.54,4249.74,4021.03,3958.97,3626.15,4348.72,4473.33,4817.44,4473.33,4459.49,4391.79,4263.59,3884.62,1653,1691,2.017,0,0,0,0,1,0,
77,4345.13,3818.97,4243.08,4026.67,3912.31,3617.44,4343.59,4458.97,4807.69,4435.38,4437.44,4381.54,4199.49,3872.31,1656,1689,2.025,0,0,0,0,1,0,
78,4334.36,3823.08,4238.97,3992.31,3913.85,3605.13,4334.36,4459.49,4814.36,4437.95,4434.87,4375.38,4138.46,3879.49,1655,1688,2.033,0,0,0,0,1,0,
79,4333.33,3803.59,4240.51,3983.08,3958.97,3600,4321.54,4460,4812.31,4472.82,4422.56,4369.23,4201.54,3871.79,1656,1690,2.04,0,0,0,0,1,0,
80,4356.92,3799.49,4252.82,4033.85,3976.41,3607.69,4326.15,4460,4810.26,4477.44,4424.62,4377.44,4283.08,3864.62,1655,1690,2.048,0,0,0,0,1,0,
81,4363.59,3842.56,4250.26,4047.69,3949.74,3606.67,4333.33,4458.97,4811.28,4465.13,4458.97,4387.18,4250.26,3889.74,1655,1692,2.056,0,0,0,0,1,0,
82,4337.95,3868.72,4232.31,4016.41,3938.97,3600.51,4324.62,4457.44,4814.36,4465.64,4466.15,4370.77,4237.44,3890.26,1654,1692,2.064,0,0,0,0,1,0,
83,4338.97,3829.23,4241.03,4022.05,3945.64,3609.74,4330.26,4465.13,4822.56,4470.26,4456.41,4376.41,4232.31,3873.33,1654,1693,2.072,0,0,0,0,1,0,
84,4372.82,3820.51,4270.26,4044.1,3949.23,3626.67,4349.23,4481.03,4827.18,4483.59,4477.44,4415.9,4155.9,3904.1,1654,1693,2.079,0,0,0,0,1,0,
85,4367.18,3853.33,4258.46,4027.69,3948.21,3621.03,4340.51,4472.31,4814.36,4477.95,4467.69,4403.59,4187.18,3910.26,1654,1692,2.087,0,0,0,0,1,0,
86,4336.92,3838.46,4234.36,4000.51,3955.38,3607.69,4329.74,4460,4810.26,4451.28,4417.95,4365.64,4290.77,3865.13,1655,1692,2.095,0,0,0,0,1,0,
87,4343.08,3806.15,4246.67,3999.49,3956.41,3612.82,4339.49,4465.64,4817.44,4467.18,4438.46,4378.46,4239.49,3859.49,1654,1691,2.103,0,0,0,0,1,0,
88,4352.31,3815.9,4249.23,4022.56,3953.33,3621.03,4338.97,4463.08,4810.26,4484.62,4469.74,4386.15,4170.26,3869.74,1656,1692,2.111,0,0,0,0,1,0,
89,4336.41,3831.79,4228.21,4048.72,3970.26,3621.03,4339.49,4466.67,4819.49,4462.56,4435.9,4360,4228.72,3849.74,1654,1691,2.119,0,0,0,0,1,0,
90,4339.49,3833.33,4238.46,4036.92,3971.79,3620.51,4347.69,4476.41,4833.85,4465.13,4417.95,4357.44,4272.82,3847.69,1654,1692,2.127,0,0,0,0,1,0,
91,4350.26,3856.41,4253.33,4004.1,3954.36,3617.95,4337.44,4464.1,4818.46,4493.33,4437.95,4365.13,4268.72,3857.44,1654,1692,2.134,0,0,0,0,1,0,
92,4346.67,3877.95,4243.59,4027.18,3963.59,3621.03,4330.77,4460.51,4811.28,4499.49,4463.59,4374.87,4247.69,3872.82,1654,1693,2.142,0,0,0,0,1,0,
93,4351.79,3863.08,4244.1,4050.77,3983.08,3625.13,4338.97,4476.92,4824.62,4492.82,4486.67,4401.03,4206.67,3897.44,1654,1693,2.15,0,0,0,0,1,0,
94,4355.38,3828.72,4254.36,4021.03,3970.26,3611.79,4333.85,4470.77,4820,4485.13,4469.23,4393.33,4224.62,3879.49,1654,1693,2.158,0,0,0,0,1,0,
95,4350.77,3824.1,4249.74,4011.79,3939.49,3597.95,4321.54,4450.77,4801.03,4465.64,4444.1,4373.33,4243.59,3868.21,1654,1692,2.165,0,0,0,0,1,0,
96,4351.79,3853.33,4244.62,4021.54,3926.15,3605.13,4326.15,4457.44,4806.15,4456.92,4464.62,4393.33,4172.31,3902.56,1654,1693,2.173,0,0,0,0,1,0,
97,4349.23,3825.13,4250.77,3997.44,3925.64,3605.64,4326.15,4465.13,4819.49,4462.05,4474.87,4398.97,4161.03,3897.44,1654,1692,2.181,0,0,0,0,1,0,
98,4351.28,3777.44,4265.64,4013.85,3943.59,3601.54,4324.1,4464.1,4815.38,4476.41,4462.05,4385.13,4245.64,3869.74,1654,1692,2.189,0,0,0,0,1,0,
99,4361.54,3817.95,4269.23,4068.21,3961.54,3613.85,4338.97,4469.23,4808.21,4497.44,4475.38,4397.44,4233.33,3896.92,1655,1692,2.197,0,0,0,0,1,0,
100,4347.18,3859.49,4252.31,4038.97,3954.87,3622.56,4351.79,4476.92,4818.46,4491.79,4462.05,4397.95,4171.28,3901.54,1655,1694,2.205,0,0,0,0,1,0,
101,4337.95,3827.18,4252.31,3986.15,3955.38,3621.03,4350.26,4480.51,4828.21,4469.74,4434.87,4391.28,4184.1,3878.97,1654,1693,2.212,0,0,0,0,1,0,
102,4357.44,3816.41,4265.13,4016.92,3971.28,3621.54,4343.59,4471.28,4811.79,4476.41,4443.59,4387.18,4233.33,3882.05,1654,1694,2.22,0,0,0,0,1,0,
103,4338.46,3833.85,4246.15,4049.74,3947.18,3611.28,4333.85,4460,4793.85,4476.41,4434.36,4350.26,4267.69,3849.23,1654,1693,2.228,0,0,0,0,1,0,
104,4306.15,3821.54,4218.97,4025.64,3913.85,3600,4329.74,4458.46,4792.82,4449.74,4426.15,4338.97,4210.77,3824.1,1654,1693,2.236,0,0,0,0,1,0,
105,4331.28,3829.74,4233.33,3997.95,3937.95,3609.23,4338.46,4459.49,4792.31,4462.56,4432.82,4374.87,4172.31,3856.41,1655,1693,2.244,0,0,0,0,1,0,
106,4369.23,3846.15,4267.18,4020,3975.38,3624.62,4344.62,4462.05,4796.41,4489.23,4449.74,4395.38,4214.87,3896.92,1654,1694,2.251,0,0,0,0,1,0,
107,4363.08,3833.33,4273.33,4059.49,3981.03,3624.1,4345.13,4473.85,4809.74,4474.36,4481.54,4405.64,4235.9,3907.69,1656,1694,2.259,0,0,0,0,1,0,
108,4343.59,3832.31,4258.46,4048.21,3965.64,3611.79,4339.49,4476.41,4814.87,4471.79,4468.21,4405.13,4210.77,3887.18,1655,1692,2.268,0,0,0,0,1,0,
109,4337.95,3831.79,4247.18,4009.74,3942.56,3601.54,4329.23,4461.03,4809.23,4500,4435.38,4383.59,4195.9,3868.21,1655,1692,2.275,0,0,0,0,1,0,
110,4325.64,3830.77,4233.33,4013.33,3944.1,3608.72,4331.79,4456.92,4811.28,4510.77,4447.18,4363.59,4229.74,3853.33,1656,1690,2.283,0,0,0,0,1,0,
111,4309.74,3847.69,4217.95,4017.44,3971.79,3624.1,4343.08,4460,4810.77,4504.62,4456.41,4354.87,4273.85,3832.31,1655,1690,2.291,0,0,0,0,1,0,
112,4318.97,3840.51,4229.74,3998.97,3978.46,3626.15,4344.62,4465.64,4810.26,4493.33,4434.87,4360,4274.36,3835.38,1656,1690,2.299,0,0,0,0,1,0,
113,4335.38,3820,4244.62,4027.69,3965.13,3621.03,4340.51,4472.31,4815.9,4478.46,4455.9,4380.51,4214.36,3872.82,1656,1690,2.306,0,0,0,0,1,0,
114,4330.26,3826.67,4233.33,4054.87,3937.44,3618.97,4336.41,4457.44,4802.05,4475.38,4470.77,4378.97,4176.41,3872.31,1656,1690,2.314,0,0,0,0,1,0,
115,4326.15,3823.59,4229.74,4025.13,3916.92,3616.41,4333.85,4440,4784.1,4470.77,4443.08,4372.82,4180,3855.38,1655,1691,2.322,0,0,0,0,1,0,
116,4329.74,3836.92,4236.92,4008.21,3963.59,3616.92,4343.08,4454.36,4798.97,4481.03,4446.15,4385.13,4214.36,3868.21,1656,1691,2.33,0,0,0,0,1,0,
117,4331.28,3892.82,4236.92,4029.74,4022.05,3625.13,4356.41,4477.95,4822.05,4523.08,4458.97,4371.28,4294.87,3862.56,1655,1691,2.338,0,0,0,0,1,0,
118,4355.38,3868.72,4257.44,4047.69,3986.67,3621.03,4347.69,4478.46,4817.95,4514.36,4468.21,4383.08,4235.9,3875.9,1655,1691,2.345,0,0,0,0,1,0,
119,4370.26,3803.59,4277.44,4040.51,3921.54,3602.05,4324.62,4462.56,4806.67,4464.62,4478.97,4424.1,4113.85,3913.85,1654,1690,2.353,0,0,0,0,1,0,
120,4347.18,3831.28,4260.51,4034.87,3943.08,3602.05,4323.59,4458.46,4809.74,4478.46,4466.15,4403.59,4204.62,3900,1654,1692,2.361,0,0,0,0,1,0,
121,4337.95,3884.1,4242.05,4047.18,3995.38,3619.49,4335.9,4472.82,4817.95,4521.54,4442.05,4358.97,4336.41,3856.92,1655,1688,2.369,0,0,0,0,1,0,
122,4352.31,3866.67,4245.13,4043.08,3972.31,3621.54,4330.77,4470.77,4811.28,4509.74,4444.62,4372.82,4235.38,3868.21,1654,1690,2.377,0,0,0,0,1,0,
123,4352.82,3821.54,4255.9,4019.49,3931.28,3616.41,4327.18,4454.87,4800,4493.33,4458.97,4392.31,4171.28,3885.13,1654,1688,2.384,0,0,0,0,1,0,
124,4336.41,3825.64,4248.72,4020,3955.38,3622.05,4340.51,4461.03,4807.18,4514.87,4460,4371.79,4266.15,3856.41,1654,1689,2.392,0,0,0,0,1,0,
125,4324.1,3846.15,4228.21,4033.33,3997.44,3623.08,4345.64,4475.38,4820,4508.21,4458.97,4372.82,4224.62,3855.38,1654,1688,2.4,0,0,0,0,1,0,
126,4327.69,3851.28,4228.72,4030.77,3998.97,3619.49,4344.1,4478.46,4827.18,4484.62,4438.97,4386.67,4172.31,3870.26,1653,1689,2.408,0,0,0,0,1,0,
127,4351.28,3855.9,4258.97,4044.62,3987.18,3623.08,4354.36,4484.1,4831.28,4507.18,4434.36,4385.64,4267.69,3865.64,1654,1690,2.416,0,0,0,0,1,0,
128,4361.54,3847.18,4265.13,4056.92,3971.79,3627.18,4357.44,4483.08,4823.08,4535.9,4473.33,4389.23,4285.13,3878.97,1653,1692,2.424,0,0,0,0,1,0,
0,4333.85,3822.05,4237.44,4011.28,3934.36,3612.82,4340,4464.1,4809.23,4506.15,4496.41,4387.18,4209.23,3882.05,1654,1693,2.431,0,0,0,0,1,0,
1,4317.44,3812.82,4228.21,3980.51,3911.28,3598.97,4334.36,4454.87,4807.18,4467.18,4466.67,4376.92,4182.05,3856.92,1654,1691,2.439,0,0,0,0,1,0,
2,4334.36,3842.56,4234.87,4024.62,3941.54,3616.92,4351.79,4470.26,4818.46,4478.97,4441.54,4377.44,4196.92,3860,1655,1692,2.448,0,0,0,0,1,0,
3,4344.62,3848.72,4242.05,4051.79,3974.87,3630.26,4356.92,4482.05,4830.26,4495.38,4451.28,4386.67,4232.31,3877.95,1656,1689,2.455,0,0,0,0,1,0,
4,4344.1,3836.41,4253.85,4030.77,3972.31,3619.49,4349.74,4480.51,4831.28,4490.26,4461.03,4392.31,4245.64,3871.28,1656,1690,2.463,0,0,0,0,1,0,
5,4352.31,3831.79,4260,4032.82,3969.23,3630.77,4359.49,4483.59,4825.13,4491.79,4462.56,4396.92,4212.82,3879.49,1657,1689,2.471,0,0,0,0,1,0,
6,4346.67,3840,4253.85,4053.33,3988.21,3649.74,4367.18,4486.15,4829.23,4508.21,4457.44,4388.72,4254.36,3880.51,1656,1690,2.478,0,0,0,0,1,0,
7,4335.9,3854.36,4247.69,4029.23,3970.77,3631.79,4356.41,4479.49,4831.79,4518.97,4460.51,4378.46,4291.28,3860.51,1656,1691,2.486,0,0,0,0,1,0,
8,4338.46,3842.56,4237.44,3992.82,3921.03,3612.31,4348.21,4467.18,4814.87,4504.62,4462.05,4380,4201.54,3861.03,1656,1692,2.494,0,0,0,0,1,0,
9,4342.05,3816.41,4233.33,4017.44,3925.13,3618.46,4348.72,4463.08,4807.18,4485.64,4454.36,4382.56,4160.51,3872.82,1655,1692,2.502,0,0,0,0,1,0,
10,4346.67,3808.72,4247.69,4054.87,3970.77,3623.59,4351.79,4470.77,4824.62,4488.21,4448.72,4387.18,4238.97,3882.56,1654,1693,2.51,0,0,0,0,1,0,
11,4342.56,3834.36,4246.67,4032.82,3982.56,3624.62,4355.38,4477.44,4833.33,4510.77,4442.56,4382.05,4288.21,3872.31,1654,1694,2.517,0,0,0,0,1,0,
12,4329.74,3855.38,4233.33,4006.67,3969.74,3621.03,4347.69,4473.33,4817.44,4511.79,4448.72,4368.21,4264.62,3846.15,1653,1694,2.525,0,0,0,0,1,0,
13,4329.23,3852.82,4234.36,4030.26,3976.41,3618.46,4337.95,4468.21,4810.77,4492.31,4465.13,4373.85,4231.79,3854.36,1653,1695,2.533,0,0,0,0,1,0,
14,4335.9,3844.1,4239.49,4028.21,3976.41,3621.03,4340,4471.28,4821.54,4493.85,4455.9,4383.59,4231.79,3877.44,1654,1694,2.541,0,0,0,0,1,0,
15,4350.77,3829.74,4252.82,4007.18,3959.49,3617.44,4341.54,4474.87,4821.03,4501.03,4445.64,4392.82,4218.97,3894.87,1653,1695,2.549,0,0,0,0,1,0,
16,4362.56,3813.33,4263.59,4043.08,3945.64,3611.79,4339.49,4473.33,4813.33,4469.74,4478.46,4408.72,4182.56,3905.64,1655,1694,2.557,0,0,0,0,1,0,
17,4336.41,3797.95,4242.05,4051.79,3921.54,3607.69,4338.46,4461.54,4810.77,4429.23,4480,4393.85,4178.46,3870.26,1654,1693,2.564,0,0,0,0,1,0,
18,4320.51,3805.64,4227.18,4007.18,3933.33,3608.21,4341.54,4460,4810.26,4453.33,4427.69,4369.23,4192.31,3848.21,1654,1692,2.572,0,0,0,0,1,0,
19,4339.49,3826.67,4241.03,4001.03,3970.77,3616.92,4348.21,4471.28,4811.79,4495.9,4419.49,4379.49,4183.59,3880,1655,1691,2.58,0,0,0,0,1,0,
20,4332.31,3842.05,4234.36,4025.13,3965.13,3626.67,4353.33,4469.23,4816.92,4489.23,4452.31,4380.51,4214.36,3870.26,1655,1691,2.588,0,0,0,0,1,0,
21,4312.82,3830.77,4215.9,4023.08,3951.79,3621.54,4350.77,4457.95,4811.79,4466.15,4444.62,4356.41,4271.28,3829.23,1654,1690,2.596,0,0,0,0,1,0,
22,4322.05,3815.9,4224.62,4022.56,3981.03,3617.44,4346.15,4460.51,4808.21,4469.74,4424.62,4357.44,4243.08,3845.64,1655,1691,2.603,0,0,0,0,1,0,
23,4328.72,3830.26,4237.44,4037.95,3994.36,3632.82,4353.33,4473.85,4822.56,4491.28,4436.92,4375.38,4210.77,3864.1,1655,1690,2.611,0,0,0,0,1,0,
24,4324.1,3839.49,4234.36,4030.26,3970.26,3643.59,4361.54,4477.44,4826.67,4495.38,4438.46,4364.62,4251.79,3846.67,1656,1691,2.619,0,0,0,0,1,0,
25,4327.69,3830.26,4230.26,4018.46,3975.38,3633.33,4354.36,4473.33,4813.33,4472.82,4429.23,4357.44,4243.08,3850.26,1655,1690,2.627,0,0,0,0,1,0,
26,4331.28,3837.44,4230.26,4029.23,3995.9,3621.54,4348.21,4471.28,4811.79,4469.74,4435.38,4366.15,4223.08,3850.77,1656,1691,2.635,0,0,0,0,1,0,
27,4336.92,3845.13,4240.51,4050.26,3969.74,3618.97,4350.26,4466.67,4816.41,4488.72,4442.05,4371.79,4212.31,3847.18,1655,1691,2.643,0,0,0,0,1,0,
28,4341.54,3831.28,4246.15,4051.28,3933.33,3614.36,4345.13,4456.92,4810.77,4483.08,4452.82,4379.49,4153.33,3875.9,1656,1690,2.65,0,0,0,0,1,0,
29,4339.49,3836.92,4235.9,4035.38,3951.28,3624.62,4345.13,4461.03,4814.36,4469.23,4460.51,4384.62,4175.38,3887.18,1655,1691,2.658,0,0,0,0,1,0,
30,4342.05,3844.1,4237.95,4030.77,3987.69,3640,4352.31,4476.41,4827.69,4473.85,4457.95,4377.95,4275.38,3861.03,1656,1689,2.666,0,0,0,0,1,0,
31,4341.03,3835.38,4248.21,4035.38,3986.67,3627.69,4350.77,4478.97,4830.26,4483.59,4456.41,4373.85,4276.41,3856.92,1655,1688,2.674,0,0,0,0,1,0,
32,4337.44,3833.85,4245.13,4037.44,3967.69,3616.92,4348.21,4476.41,4828.72,4501.54,4449.23,4376.92,4257.44,3863.08,1655,1690,2.682,0,0,0,0,1,0,
33,4343.59,3838.46,4248.21,4031.79,3962.56,3620.51,4346.67,4473.85,4824.62,4503.59,4433.33,4376.41,4274.87,3857.44,1655,1688,2.689,0,0,0,0,1,0,
34,4351.79,3836.41,4257.44,4031.79,3954.87,3611.79,4335.9,4462.05,4812.82,4475.9,4460,4390.77,4188.21,3884.1,1653,1691,2.697,0,0,0,0,1,0,
35,4342.56,3838.97,4247.18,4035.9,3948.21,3612.82,4338.46,4454.87,4807.69,4478.97,4489.74,4401.03,4151.28,3900,1655,1691,2.705,0,0,0,0,1,0,
36,4330.26,3849.74,4229.23,4029.74,3968.21,3630.77,4352.82,4464.62,4824.1,4501.03,4443.59,4371.28,4275.9,3858.46,1654,1691,2.713,0,0,0,0,1,0,
37,4332.82,3849.23,4227.69,4030.26,3975.9,3620.51,4345.64,4462.56,4823.08,4473.33,4418.97,4356.41,4276.41,3846.15,1655,1692,2.721,0,0,0,0,1,0,
38,4350.26,3840.51,4249.23,4043.08,3962.05,3616.41,4341.54,4456.41,4807.69,4451.79,4469.23,4388.72,4176.92,3892.82,1654,1692,2.73,0,0,0,0,1,0,
39,4368.72,3815.38,4272.31,4042.56,3969.74,3637.44,4355.38,4470.26,4815.38,4475.9,4472.31,4397.95,4219.49,3902.56,1655,1694,2.736,0,0,0,0,1,0,
40,4356.92,3805.13,4254.36,4027.69,3977.95,3632.82,4352.82,4472.31,4822.05,4476.92,4421.03,4369.23,4263.59,3866.67,1655,1692,2.744,0,0,0,0,1,0,
41,4336.92,3842.05,4229.74,4040.51,3967.69,3615.9,4341.03,4465.64,4818.97,4469.74,4421.54,4366.15,4213.33,3853.85,1655,1691,2.752,0,0,0,0,1,0,
42,4345.13,3865.64,4243.08,4062.05,3972.82,3619.49,4344.1,4480.51,4826.67,4501.03,4451.79,4378.97,4249.23,3865.13,1655,1688,2.76,0,0,0,0,1,0,
43,4356.41,3854.36,4255.9,4042.05,3980.51,3628.72,4355.9,4495.9,4835.38,4513.85,4449.74,4378.46,4285.64,3881.54,1655,1689,2.768,0,0,0,0,1,0,
44,4347.69,3844.62,4246.15,4022.05,3965.64,3631.79,4362.05,4492.82,4836.92,4497.44,4454.36,4385.64,4223.59,3886.15,1657,1688,2.775,0,0,0,0,1,0,
45,4350.77,3839.49,4252.31,4041.54,3970.26,3633.85,4367.18,4496.41,4845.13,4509.23,4462.56,4391.79,4249.23,3872.82,1654,1690,2.783,0,0,0,0,1,0,
46,4363.08,3823.59,4271.79,4040,3982.56,3638.46,4368.21,4498.97,4842.56,4514.87,4465.64,4398.46,4267.18,3885.64,1657,1691,2.791,0,0,0,0,1,0,
47,4350.26,3828.21,4263.59,4021.03,3961.03,3634.36,4362.05,4481.03,4820,4481.03,4485.13,4409.23,4166.15,3909.23,1655,1693,2.799,0,0,0,0,1,0,
48,4348.21,3838.46,4247.69,4037.95,3947.18,3624.62,4354.87,4468.21,4809.23,4472.82,4464.62,4389.74,4205.64,3885.13,1655,1695,2.807,0,0,0,0,1,0,
49,4360.51,3828.72,4247.18,4054.87,3971.28,3628.21,4353.33,4470.77,4817.44,4489.23,4422.56,4368.72,4310.26,3858.97,1654,1693,2.815,0,0,0,0,1,0,
50,4350.77,3831.28,4248.21,4032.31,3978.97,3641.03,4361.54,4478.97,4829.23,4478.46,4424.1,4375.9,4273.85,3866.67,1654,1694,2.822,0,0,0,0,1,0,
51,4345.13,3833.85,4254.36,4014.87,3959.49,3629.23,4358.97,4478.46,4824.1,4470.77,4452.31,4382.05,4211.79,3881.54,1654,1693,2.83,0,0,0,0,1,0,
52,4350.77,3830.26,4254.36,4026.15,3962.56,3612.31,4343.08,4467.18,4806.67,4476.41,4464.1,4389.23,4159.49,3898.46,1654,1693,2.838,0,0,0,0,1,0,
53,4334.36,3839.49,4235.9,4022.05,3965.64,3618.46,4341.03,4461.03,4809.23,4464.62,4439.49,4379.49,4154.36,3876.41,1654,1692,2.846,0,0,0,0,1,0,
54,4322.05,3823.59,4226.15,4016.92,3944.62,3622.56,4348.21,4463.08,4820,4460.51,4411.28,4340.51,4251.28,3824.62,1654,1692,2.854,0,0,0,0,1,0,
55,4340.51,3794.87,4233.85,4036.41,3951.28,3620,4350.26,4462.05,4809.23,4481.03,4412.31,4336.92,4282.05,3840,1655,1690,2.861,0,0,0,0,1,0,
56,4346.15,3820,4231.79,4045.13,3978.46,3617.95,4348.21,4453.85,4795.9,4478.97,4436.41,4370.77,4211.28,3877.44,1654,1690,2.869,0,0,0,0,1,0,
57,4337.95,3870.26,4235.38,4037.44,3983.08,3622.05,4353.33,4460,4808.72,4475.38,4451.28,4373.33,4226.67,3853.85,1655,1689,2.877,0,0,0,0,1,0,
58,4341.54,3861.03,4246.15,4037.44,3966.15,3631.28,4358.46,4470.77,4822.05,4492.82,4448.72,4361.54,4283.59,3842.56,1654,1689,2.885,0,0,0,0,1,0,
59,4341.54,3827.18,4241.03,4025.13,3953.33,3629.23,4353.33,4467.69,4813.33,4485.64,4438.97,4369.74,4254.87,3870.77,1655,1690,2.893,0,0,0,0,1,0,
60,4345.13,3842.05,4244.62,4006.67,3968.72,3626.67,4352.82,4467.69,4811.79,4474.87,4443.08,4384.62,4204.62,3886.15,1656,1689,2.901,0,0,0,0,1,0,
61,4356.41,3851.28,4263.59,4025.64,3982.56,3630.77,4357.44,4477.44,4821.54,4491.79,4469.23,4396.92,4200.51,3892.82,1655,1690,2.908,0,0,0,0,1,0,
62,4352.31,3824.62,4260,4049.23,3970.77,3626.67,4356.41,4479.49,4819.49,4500.51,4460,4384.62,4255.9,3881.03,1656,1690,2.916,0,0,0,0,1,0,
63,4338.46,3829.23,4240.51,4033.33,3956.92,3617.95,4349.74,4474.36,4817.95,4482.56,4439.49,4368.21,4283.08,3857.44,1655,1691,2.924,0,0,0,0,1,0,
64,4340,3850.77,4237.95,4024.1,3954.36,3619.49,4347.18,4472.82,4822.05,4478.46,4449.23,4371.28,4244.62,3851.28,1654,1691,2.932,0,0,0,0,1,0,
65,4351.28,3837.44,4249.74,4037.44,3967.69,3624.1,4352.82,4476.92,4828.72,4491.28,4464.62,4384.62,4231.28,3873.85,1654,1692,2.94,0,0,0,0,1,0,
66,4356.92,3826.15,4254.36,4032.31,3976.41,3622.05,4357.95,4477.95,4830.26,4484.1,4464.1,4394.36,4227.18,3896.41,1654,1691,2.947,0,0,0,0,1,0,
67,4346.15,3834.36,4246.15,4021.03,3960.51,3621.03,4353.33,4466.15,4812.31,4463.08,4447.18,4382.05,4201.54,3877.95,1652,1691,2.955,0,0,0,0,1,0,
68,4337.95,3834.87,4242.56,4030.77,3963.59,3625.13,4349.74,4457.95,4799.49,4469.74,4441.54,4374.36,4188.72,3864.1,1654,1692,2.963,0,0,0,0,1,0,
69,4351.28,3852.82,4250.26,4045.13,3997.44,3638.46,4364.1,4473.85,4819.49,4498.46,4446.67,4389.23,4227.18,3888.72,1653,1689,2.971,0,0,0,0,1,0,
70,4355.38,3865.64,4250.26,4034.87,3984.62,3638.46,4369.74,4487.69,4833.33,4486.15,4447.69,4391.79,4269.74,3890.26,1653,1691,2.979,0,0,0,0,1,0,
71,4351.79,3836.92,4251.28,4025.13,3958.46,3623.59,4357.95,4487.69,4825.64,4469.23,4460,4389.74,4256.41,3881.54,1654,1689,2.987,0,0,0,0,1,0,
72,4359.49,3822.05,4258.97,4041.03,3982.05,3625.64,4360,4493.33,4831.28,4500.51,4470.26,4398.46,4264.1,3893.33,1653,1691,2.994,0,0,0,0,1,0,
73,4354.87,3815.9,4257.44,4029.74,3963.59,3624.62,4356.41,4485.64,4827.18,4503.08,4450.77,4387.18,4273.85,3877.95,1655,1690,3.002,0,0,0,0,1,0,
74,4338.46,3798.97,4245.64,4003.59,3925.13,3613.33,4342.56,4468.21,4807.69,4459.49,4437.44,4371.28,4220,3850.26,1654,1692,3.01,0,0,0,0,1,0,
75,4336.41,3830.26,4236.92,4015.38,3952.82,3616.41,4342.56,4468.72,4808.21,4455.38,4440,4374.36,4215.9,3858.97,1655,1692,3.018,0,0,0,0,1,0,
76,4344.1,3868.21,4240.51,4040.51,3975.9,3621.03,4345.13,4467.18,4811.28,4468.21,4443.59,4376.92,4253.85,3877.95,1654,1693,3.026,0,0,0,0,1,0,
77,4346.15,3845.64,4248.21,4031.79,3968.21,3621.54,4342.56,4461.54,4811.79,4454.87,4469.23,4384.1,4229.74,3883.08,1655,1694,3.034,0,0,0,0,1,0,
78,4345.64,3835.9,4244.1,4030.26,3986.67,3632.31,4350.77,4474.87,4825.13,4472.82,4465.64,4380.51,4250.26,3867.18,1654,1693,3.041,0,0,0,0,1,0,
79,4353.33,3858.46,4249.23,4047.69,3986.15,3642.05,4357.95,4491.79,4834.36,4504.1,4440.51,4375.38,4296.41,3865.13,1655,1692,3.049,0,0,0,0,1,0,
80,4364.1,3842.56,4268.21,4034.87,3955.9,3636.41,4351.28,4490.77,4832.82,4495.9,4462.05,4397.95,4232.82,3892.82,1655,1692,3.057,0,0,0,0,1,0,
81,4348.72,3816.92,4257.95,4027.69,3963.08,3627.18,4345.13,4481.03,4827.18,4481.54,4472.82,4397.95,4205.13,3885.64,1656,1691,3.065,0,0,0,0,1,0,
82,4322.05,3826.15,4226.67,4031.79,3968.21,3617.44,4340.51,4468.72,4810.26,4471.79,4427.18,4356.41,4267.18,3843.59,1656,1692,3.073,0,0,0,0,1,0,
83,4329.23,3838.97,4236.92,4027.18,3961.54,3617.44,4340.51,4466.67,4805.64,4457.44,4424.62,4361.03,4245.13,3858.46,1655,1691,3.08,0,0,0,0,1,0,
84,4341.54,3837.95,4257.44,4027.69,3963.59,3618.97,4342.05,4473.85,4812.31,4457.95,4463.59,4394.87,4191.79,3889.74,1656,1692,3.088,0,0,0,0,1,0,
85,4325.64,3830.77,4238.97,4021.54,3944.62,3607.69,4337.95,4461.54,4802.56,4460.51,4450.26,4376.92,4226.67,3867.69,1656,1692,3.096,0,0,0,0,1,0,
86,4316.41,3820,4224.62,4016.41,3945.13,3611.28,4338.97,4453.33,4800.51,4456.41,4430.26,4357.44,4266.67,3849.74,1654,1692,3.104,0,0,0,0,1,0,
87,4328.21,3817.44,4238.46,4026.67,3979.49,3626.67,4344.1,4468.21,4815.9,4464.1,4447.18,4375.9,4256.92,3864.1,1655,1692,3.112,0,0,0,0,1,0,
88,4336.41,3827.69,4253.85,4026.15,3982.56,3624.1,4343.08,4479.49,4823.08,4475.38,4465.64,4390.26,4234.36,3875.38,1654,1691,3.12,0,0,0,0,1,0,
89,4328.21,3833.33,4245.64,4009.74,3957.44,3615.9,4338.97,4469.74,4819.49,4475.9,4463.59,4383.59,4226.15,3873.85,1655,1693,3.127,0,0,0,0,1,0,
90,4321.54,3831.79,4231.79,4018.97,3960,3617.44,4340,4465.64,4815.38,4470.26,4454.87,4378.97,4234.87,3878.46,1655,1690,3.135,0,0,0,0,1,0,
91,4334.36,3835.38,4239.49,4036.92,3968.21,3619.49,4342.05,4470.77,4812.82,4458.97,4453.33,4384.1,4248.72,3881.03,1654,1691,3.143,0,0,0,0,1,0,
92,4341.03,3835.38,4247.69,4027.18,3960,3618.97,4340.51,4465.13,4809.74,4448.72,4438.97,4380.51,4250.26,3860.51,1655,1690,3.151,0,0,0,0,1,0,
93,4325.64,3818.97,4235.9,4015.38,3955.9,3620,4340,4457.44,4809.74,4448.72,4430.26,4370.26,4225.64,3848.21,1654,1690,3.159,0,0,0,0,1,0,
94,4319.49,3812.31,4227.18,4013.85,3963.08,3620.51,4344.1,4462.56,4811.79,4436.92,4441.03,4372.31,4213.85,3861.54,1655,1689,3.166,0,0,0,0,1,0,
95,4329.23,3817.95,4239.49,4004.62,3956.41,3620.51,4342.05,4460,4802.05,4418.97,4442.56,4380,4231.28,3867.69,1654,1690,3.174,0,0,0,0,1,0,
96,4325.64,3821.54,4245.13,4007.18,3951.79,3618.97,4335.38,4448.21,4793.85,4427.69,4438.97,4377.44,4236.92,3853.33,1656,1690,3.182,0,0,0,0,1,0,
97,4328.21,3829.23,4245.13,4035.38,3984.1,3620,4341.54,4454.87,4808.21,4452.82,4455.38,4386.67,4223.08,3875.9,1655,1690,3.19,0,0,0,0,1,0,
98,4352.31,3833.33,4252.82,4052.31,3994.87,3624.62,4350.77,4467.69,4819.49,4457.95,4464.62,4403.59,4216.92,3911.28,1656,1691,3.198,0,0,0,0,1,0,
99,4351.28,3830.77,4245.64,4029.23,3951.28,3621.54,4340.51,4461.54,4810.77,4436.41,4449.23,4388.21,4208.72,3886.67,1655,1691,3.206,0,0,0,0,1,0,
100,4320.51,3834.87,4227.18,4000.51,3939.49,3616.41,4331.79,4455.9,4809.23,4426.67,4441.54,4362.56,4220.51,3847.69,1655,1692,3.213,0,0,0,0,1,0,
101,4315.9,3840,4223.08,4008.72,3972.82,3620.51,4339.49,4460.51,4816.41,4451.28,4440.51,4359.49,4267.69,3853.33,1655,1691,3.221,0,0,0,0,1,0,
102,4345.13,3817.95,4241.54,4021.54,3976.41,3623.59,4343.59,4467.18,4819.49,4472.82,4447.18,4373.85,4265.13,3877.44,1654,1691,3.229,0,0,0,0,1,0,
103,4353.85,3810.77,4252.31,4009.23,3965.64,3619.49,4338.46,4473.85,4819.49,4452.82,4458.46,4388.21,4229.74,3880,1656,1690,3.237,0,0,0,0,1,0,
104,4340.51,3832.82,4247.18,4009.74,3976.41,3617.44,4338.46,4473.33,4818.46,4430.77,4451.79,4387.18,4250.77,3875.38,1654,1691,3.245,0,0,0,0,1,0,
105,4336.41,3828.21,4244.62,4036.92,3961.54,3619.49,4340.51,4462.56,4813.85,4446.67,4447.18,4382.05,4247.69,3877.95,1654,1692,3.252,0,0,0,0,1,0,
106,4347.18,3815.9,4249.74,4042.05,3937.44,3621.03,4340,4457.44,4809.74,4464.62,4464.1,4394.36,4193.85,3883.59,1654,1691,3.26,0,0,0,0,1,0,
107,4349.74,3845.13,4250.77,4018.97,3963.08,3620.51,4338.97,4461.03,4810.26,4453.33,4460,4398.97,4230.77,3883.08,1654,1692,3.268,0,0,0,0,1,0,
108,4341.54,3868.72,4248.21,4015.9,3993.33,3620,4340,4465.64,4813.85,4444.1,4440,4383.08,4302.56,3876.92,1653,1691,3.276,0,0,0,0,1,0,
109,4345.64,3833.33,4249.74,4026.67,3964.62,3621.54,4341.54,4470.77,4814.36,4454.36,4453.85,4387.69,4260,3883.08,1655,1692,3.284,0,0,0,0,1,0,
110,4348.72,3806.67,4248.21,4016.41,3935.38,3620,4342.56,4475.38,4814.36,4469.74,4469.23,4395.38,4242.05,3882.56,1654,1691,3.292,0,0,0,0,1,0,
111,4342.05,3817.95,4252.82,3995.9,3952.82,3617.95,4346.15,4476.92,4815.9,4465.13,4456.92,4388.72,4267.69,3876.92,1654,1693,3.299,0,0,0,0,1,0,
112,4350.26,3810.26,4264.1,4008.21,3970.26,3620,4349.74,4474.87,4814.87,4439.49,4457.95,4403.08,4182.05,3896.41,1655,1690,3.307,0,0,0,0,1,0,
113,4353.85,3800.51,4254.36,4034.87,3958.46,3623.08,4351.28,4473.85,4814.36,4424.1,4468.21,4410.26,4132.82,3899.49,1654,1691,3.315,0,0,0,0,1,0,
114,4331.79,3824.62,4235.38,4018.46,3948.72,3621.54,4349.74,4477.44,4817.44,4439.49,4453.85,4380.51,4243.59,3865.13,1655,1689,3.323,0,0,0,0,1,0,
115,4323.08,3846.15,4240,3994.36,3955.9,3616.41,4344.62,4474.87,4814.87,4461.03,4430.77,4368.21,4299.49,3857.95,1654,1690,3.332,0,0,0,0,1,0,
116,4344.1,3825.13,4255.38,4009.23,3955.9,3616.92,4344.1,4466.15,4810.26,4457.95,4442.56,4387.18,4241.54,3883.59,1655,1690,3.338,0,0,0,0,1,0,
117,4346.15,3810.77,4250.77,4020,3957.95,3622.56,4349.23,4462.05,4809.23,4451.79,4467.18,4389.23,4231.28,3884.1,1654,1689,3.346,0,0,0,0,1,0,
118,4336.41,3827.69,4243.08,4022.56,3978.97,3623.59,4346.67,4464.1,4813.85,4458.46,4450.77,4377.44,4265.64,3872.31,1655,1690,3.354,0,0,0,0,1,0,
119,4339.49,3841.03,4245.64,4026.67,3977.44,3618.46,4338.46,4465.13,4815.38,4453.33,4433.85,4377.95,4233.85,3874.36,1655,1690,3.362,0,0,0,0,1,0,
120,4339.49,3834.87,4246.15,4004.62,3956.92,3616.92,4339.49,4466.67,4810.77,4436.41,4458.46,4384.1,4178.97,3876.92,1655,1692,3.37,0,0,0,0,1,0,
121,4338.97,3816.41,4248.72,3999.49,3967.18,3624.1,4347.18,4473.33,4818.97,4436.92,4467.18,4385.64,4200.51,3880.51,1655,1691,3.378,0,0,0,0,1,0,
122,4341.03,3823.59,4249.74,4030.26,3987.18,3632.31,4353.85,4478.46,4830.77,4457.95,4442.05,4380,4269.74,3877.44,1655,1692,3.385,0,0,0,0,1,0,
123,4345.64,3844.62,4251.28,4028.21,3973.33,3636.41,4360,4478.97,4822.56,4468.21,4449.23,4386.15,4259.49,3872.82,1656,1690,3.393,0,0,0,0,1,0,
124,4350.77,3827.69,4257.95,4000.51,3952.31,3629.23,4351.79,4476.92,4811.79,4455.9,4466.15,4400,4208.72,3891.28,1654,1693,3.401,0,0,0,0,1,0,
125,4344.62,3808.72,4255.38,4009.23,3956.41,3616.92,4341.03,4473.85,4815.38,4443.08,4443.08,4391.79,4236.92,3894.36,1655,1693,3.409,0,0,0,0,1,0,
126,4341.54,3828.21,4253.85,4029.74,3967.18,3614.36,4344.1,4475.38,4817.95,4440.51,4442.56,4381.03,4268.72,3876.41,1653,1692,3.417,0,0,0,0,1,0,
127,4356.92,3838.46,4263.08,4026.67,3969.23,3621.54,4349.74,4478.46,4815.9,4447.18,4470.77,4393.85,4240.51,3883.08,1654,1692,3.425,0,0,0,0,1,0,
128,4364.1,3825.13,4268.72,4014.87,3972.31,3633.33,4354.87,4480,4818.46,4448.72,4471.79,4402.56,4231.79,3900,1654,1690,3.432,0,0,0,0,1,0,
0,4352.82,3829.74,4266.15,4009.74,3980,3637.95,4357.95,4478.97,4816.92,4433.85,4461.03,4400,4240.51,3897.44,1654,1690,3.44,0,0,0,0,1,0,
1,4346.15,3834.36,4260.51,4018.97,3972.31,3632.31,4349.74,4470.26,4812.31,4429.23,4458.46,4393.33,4225.64,3888.21,1654,1691,3.448,0,0,0,0,1,0,
2,4341.03,3826.67,4248.21,4021.03,3962.56,3633.85,4344.62,4465.64,4811.79,4452.82,4446.15,4380.51,4226.15,3881.03,1654,1692,3.456,0,0,0,0,1,0,
3,4333.33,3820.51,4241.54,4006.67,3970.77,3636.41,4349.74,4466.15,4810.77,4460,4434.36,4372.82,4243.08,3871.79,1655,1692,3.464,0,0,0,0,1,0,
4,4334.36,3805.64,4250.26,4002.56,3973.33,3625.64,4349.74,4465.64,4809.23,4434.87,4445.13,4381.03,4232.31,3877.44,1654,1693,3.471,0,0,0,0,1,0,
5,4337.44,3805.13,4251.79,4017.44,3967.69,3618.46,4350.26,4471.79,4812.82,4425.64,4456.41,4388.21,4231.28,3886.67,1655,1693,3.479,0,0,0,0,1,0,
6,4337.95,3827.18,4244.1,4010.77,3956.41,3617.95,4351.79,4471.28,4808.72,4431.79,4441.54,4377.44,4251.28,3870.77,1655,1693,3.487,0,0,0,0,1,0,
7,4350.77,3822.56,4249.23,3981.03,3951.79,3619.49,4348.21,4462.05,4802.56,4438.97,4429.74,4371.79,4240,3863.59,1655,1691,3.495,0,0,0,0,1,0,
8,4375.9,3816.92,4265.64,3998.97,3972.82,3634.87,4356.92,4473.85,4817.95,4459.49,4446.67,4389.23,4230.77,3890.26,1655,1691,3.503,0,0,0,0,1,0,
9,4386.67,3828.72,4272.82,4038.97,3988.21,3639.49,4365.13,4491.79,4833.33,4462.56,4466.67,4404.1,4258.46,3906.67,1655,1689,3.511,0,0,0,0,1,0,
10,4380,3828.21,4265.13,4026.15,3975.9,3626.67,4358.46,4487.69,4829.74,4443.59,4460.51,4395.38,4266.15,3891.79,1655,1690,3.518,0,0,0,0,1,0,
11,4383.59,3824.62,4263.08,3998.97,3970.26,3626.15,4356.92,4480.51,4824.1,4442.56,4456.41,4391.79,4230.26,3890.26,1655,1688,3.526,0,0,0,0,1,0,
12,4393.33,3826.67,4267.69,4014.87,3976.41,3630.77,4359.49,4483.59,4821.03,4451.79,4462.05,4399.49,4235.9,3897.95,1655,1689,3.534,0,0,0,0,1,0,
13,4385.13,3820,4264.62,4027.18,3968.21,3621.03,4350.26,4473.85,4813.85,4454.36,4451.28,4388.72,4269.23,3884.1,1655,1688,3.542,0,0,0,0,1,0,
14,4378.46,3830.77,4257.95,4017.95,3973.85,3618.97,4342.05,4461.54,4808.72,4453.85,4438.46,4374.87,4248.21,3874.36,1654,1690,3.55,0,0,0,0,1,0,
15,4386.67,3844.1,4262.05,4016.92,3978.97,3630.77,4343.59,4460.51,4808.21,4444.62,4451.79,4386.15,4224.1,3885.13,1656,1690,3.557,0,0,0,0,1,0,
16,4385.13,3825.13,4265.64,4006.15,3963.08,3625.64,4344.1,4459.49,4806.15,4434.87,4460.51,4395.38,4247.18,3895.38,1655,1690,3.565,0,0,0,0,1,0,
17,4379.49,3824.62,4257.44,4008.21,3962.05,3615.38,4340.51,4458.46,4807.69,4438.46,4449.23,4384.62,4255.38,3895.38,1656,1692,3.573,0,0,0,0,1,0,
18,4385.64,3836.41,4256.41,4032.31,3973.33,3624.1,4342.05,4466.15,4819.49,4448.21,4446.15,4378.46,4257.44,3891.79,1655,1692,3.581,0,0,0,0,1,0,
19,4387.69,3820,4267.69,4033.33,3975.9,3631.79,4350.77,4478.46,4829.23,4457.44,4462.56,4390.77,4273.33,3889.23,1655,1693,3.589,0,0,0,0,1,0,
20,4382.05,3815.9,4272.31,4028.21,3971.28,3622.56,4351.28,4480,4822.56,4459.49,4469.74,4399.49,4247.18,3894.36,1654,1692,3.597,0,0,0,0,1,0,
21,4373.33,3828.21,4262.05,4020.51,3957.95,3616.92,4341.03,4471.28,4807.69,4446.15,4455.9,4387.18,4210.26,3898.46,1654,1692,3.604,0,0,0,0,1,0,
22,4366.15,3818.97,4248.21,4002.05,3949.74,3621.54,4341.03,4472.82,4811.28,4436.92,4443.08,4374.36,4236.41,3885.64,1654,1690,3.612,0,0,0,0,1,0,
23,4366.15,3802.56,4242.56,3994.87,3963.08,3620.51,4347.69,4477.95,4822.56,4449.23,4437.95,4372.31,4277.44,3869.74,1653,1691,3.62,0,0,0,0,1,0,
24,4371.79,3821.54,4252.82,3998.97,3980.51,3622.05,4354.87,4480,4822.05,4465.13,4455.38,4382.05,4271.28,3881.54,1655,1690,3.628,0,0,0,0,1,0,
25,4377.95,3836.41,4266.67,4010.26,3973.85,3624.62,4358.46,4478.46,4815.9,4453.33,4471.79,4395.9,4235.9,3900,1654,1691,3.636,0,0,0,0,1,0,
26,4382.05,3820.51,4265.64,4035.38,3965.64,3621.03,4351.28,4467.18,4810.26,4433.33,4463.59,4395.38,4224.62,3893.85,1657,1691,3.646,0,0,0,0,1,0,
27,4381.03,3811.79,4262.56,4032.82,3958.97,3623.59,4346.15,4461.54,4809.74,4447.18,4465.13,4390.26,4242.05,3891.79,1656,1691,3.651,0,0,0,0,1,0,
28,4368.72,3827.69,4262.05,4001.03,3955.38,3632.31,4350.77,4468.21,4810.77,4467.18,4465.13,4388.21,4258.97,3896.92,1657,1691,3.659,0,0,0,0,1,0,
29,4359.49,3849.23,4257.44,4006.15,3984.1,3636.92,4352.31,4477.44,4815.9,4461.03,4446.67,4386.67,4269.74,3886.15,1657,1690,3.666,0,0,0,0,1,0,
30,4357.44,3841.03,4248.21,4024.62,4005.64,3637.95,4350.26,4474.36,4817.95,4458.46,4443.08,4378.46,4275.9,3870.77,1656,1692,3.675,0,0,0,0,1,0,
31,4357.44,3821.54,4246.67,4008.72,3981.54,3635.9,4353.33,4470.77,4813.85,4462.05,4461.03,4377.44,4264.1,3878.97,1657,1692,3.683,0,0,0,0,1,0,
32,4363.08,3812.82,4258.97,3995.9,3957.95,3626.15,4358.97,4480.51,4820,4457.95,4466.67,4390.26,4244.62,3897.95,1656,1692,3.69,0,0,0,0,1,0,
33,4366.67,3800.51,4266.15,4013.33,3956.92,3621.03,4357.95,4485.64,4830.77,4460,4462.56,4391.28,4250.26,3895.9,1656,1691,3.698,0,0,0,0,1,0,
34,4359.49,3801.03,4252.82,4024.62,3949.74,3623.08,4352.31,4478.97,4826.67,4457.95,4452.82,4373.33,4266.67,3875.9,1654,1691,3.706,0,0,0,0,1,0,
35,4352.82,3823.59,4241.03,4009.74,3950.26,3623.59,4351.79,4471.79,4813.85,4445.64,4440.51,4365.64,4253.85,3870.26,1655,1691,3.714,0,0,0,0,1,0,
36,4365.64,3832.31,4252.31,4002.56,3973.33,3623.08,4355.38,4473.85,4811.79,4448.72,4453.33,4384.1,4227.69,3888.21,1653,1691,3.722,0,0,0,0,1,0,
37,4380.51,3824.62,4267.69,4012.82,3989.74,3625.13,4354.36,4479.49,4821.03,4472.82,4471.28,4395.9,4238.97,3898.46,1655,1692,3.728,0,0,0,0,1,0,
38,4374.36,3830.26,4265.64,4016.92,3984.62,3624.1,4354.36,4476.41,4818.97,4477.44,4464.1,4386.67,4269.23,3893.33,1653,1691,3.737,0,0,0,0,1,0,
39,4361.54,3831.79,4257.95,4013.85,3967.69,3620.51,4356.92,4472.31,4808.72,4449.23,4454.36,4385.13,4254.36,3892.82,1654,1693,3.745,0,0,0,0,1,0,
40,4360,3822.05,4258.97,4010.77,3963.08,3628.21,4360,4481.54,4815.38,4438.97,4464.62,4393.33,4242.05,3894.36,1654,1692,3.753,0,0,0,0,1,0,
41,4372.82,3805.64,4269.23,4010.77,3969.74,3637.44,4363.59,4492.82,4829.74,4464.62,4478.46,4393.85,4277.95,3896.41,1653,1692,3.761,0,0,0,0,1,0,
42,4370.26,3806.15,4268.72,4019.49,3962.05,3630.77,4356.92,4483.08,4822.05,4466.67,4468.21,4384.62,4288.72,3893.33,1654,1692,3.769,0,0,0,0,1,0,
43,4347.18,3834.36,4251.79,4015.38,3952.82,3614.87,4342.05,4468.21,4806.67,4439.49,4451.28,4378.46,4251.79,3884.62,1653,1692,3.776,0,0,0,0,1,0,
44,4344.62,3842.05,4251.28,4004.1,3967.18,3617.95,4347.18,4475.38,4814.36,4445.64,4464.1,4386.15,4243.59,3883.59,1655,1689,3.784,0,0,0,0,1,0,
45,4369.74,3828.72,4268.72,4011.28,3987.69,3637.44,4367.18,4491.79,4830.26,4469.74,4484.1,4396.92,4272.82,3895.38,1654,1689,3.792,0,0,0,0,1,0,
46,4376.41,3839.49,4272.31,4017.95,3989.74,3641.03,4369.23,4494.36,4828.72,4465.13,4475.9,4397.95,4262.05,3905.13,1656,1688,3.8,0,0,0,0,1,0,
47,4369.23,3837.95,4264.1,4018.46,3976.92,3626.67,4360.51,4489.74,4825.64,4455.38,4460.51,4396.92,4238.97,3910.26,1655,1688,3.808,0,0,0,0,1,0,
48,4374.87,3804.62,4265.64,4015.9,3959.49,3617.44,4357.95,4491.79,4827.69,4461.03,4457.44,4391.79,4265.64,3905.13,1656,1689,3.816,0,0,0,0,1,0,
49,4369.74,3804.1,4269.74,4008.21,3951.79,3621.54,4359.49,4489.23,4820.51,4461.54,4458.46,4383.08,4282.56,3887.69,1655,1689,3.823,0,0,0,0,1,0,
50,4351.28,3841.54,4263.08,4012.82,3963.08,3624.1,4357.95,4479.49,4813.85,4448.72,4462.05,4380.51,4267.69,3882.56,1656,1691,3.831,0,0,0,0,1,0,
51,4354.36,3857.44,4257.44,4025.64,3975.38,3621.03,4356.41,4485.64,4826.15,4444.1,4465.64,4382.56,4272.82,3891.79,1656,1689,3.839,0,0,0,0,1,0,
52,4369.74,3830.77,4270.26,4022.56,3964.62,3622.05,4357.95,4494.87,4833.33,4455.38,4466.67,4389.74,4270.26,3906.15,1655,1691,3.847,0,0,0,0,1,0,
53,4367.69,3811.28,4284.1,4014.36,3956.41,3625.64,4357.95,4481.54,4821.54,4463.08,4466.67,4394.87,4235.9,3912.82,1655,1690,3.855,0,0,0,0,1,0,
54,4351.28,3826.67,4265.64,4013.33,3973.33,3623.08,4351.79,4467.69,4811.28,4458.46,4455.9,4381.03,4228.72,3891.28,1654,1689,3.862,0,0,0,0,1,0,
55,4345.64,3842.56,4243.08,4011.28,3980,3619.49,4347.69,4472.82,4814.36,4456.92,4445.13,4366.67,4270.77,3873.33,1654,1690,3.87,0,0,0,0,1,0,
56,4348.21,3827.18,4254.87,3990.77,3959.49,3625.13,4351.79,4476.92,4820,4455.9,4453.85,4375.9,4280.51,3890.77,1654,1690,3.878,0,0,0,0,1,0,
57,4348.72,3815.9,4268.21,3983.59,3958.97,3628.72,4357.95,4476.41,4821.03,4452.82,4464.1,4382.56,4250.77,3901.54,1654,1691,3.886,0,0,0,0,1,0,
58,4347.18,3824.62,4260,4016.41,3976.41,3623.59,4361.03,4486.67,4823.59,4457.95,4458.46,4373.33,4248.72,3882.56,1654,1690,3.894,0,0,0,0,1,0,
59,4349.23,3821.54,4253.85,4033.85,3969.74,3621.54,4358.97,4493.33,4826.15,4454.87,4449.23,4370.26,4266.67,3872.82,1654,1690,3.902,0,0,0,0,1,0,
60,4353.33,3820,4263.08,4009.23,3962.56,3623.08,4356.92,4485.64,4826.67,4441.54,4452.82,4383.08,4253.33,3888.21,1654,1691,3.909,0,0,0,0,1,0,
61,4356.92,3836.92,4273.85,4003.59,3971.79,3624.62,4358.46,4479.49,4829.23,4447.69,4468.72,4398.46,4222.56,3906.15,1655,1691,3.917,0,0,0,0,1,0,
62,4360,3831.28,4272.82,4023.59,3965.13,3622.56,4355.38,4477.44,4825.13,4467.69,4469.74,4390.26,4250.26,3895.9,1655,1691,3.925,0,0,0,0,1,0,
63,4364.1,3810.26,4271.79,4028.72,3956.41,3622.05,4350.77,4474.36,4814.87,4467.69,4456.92,4374.87,4286.67,3881.03,1655,1691,3.933,0,0,0,0,1,0,
64,4365.13,3828.72,4276.92,4022.05,3966.67,3626.67,4354.87,4474.36,4811.28,4450.77,4461.54,4389.74,4249.23,3898.46,1655,1691,3.941,0,0,0,0,1,0,
65,4357.44,3842.56,4273.85,4005.64,3963.08,3627.69,4359.49,4474.87,4813.33,4439.49,4463.59,4401.54,4217.44,3907.69,1657,1691,3.948,0,0,0,0,1,0,
66,4351.28,3814.36,4265.64,3998.46,3956.92,3622.05,4357.44,4473.85,4811.79,4443.08,4446.15,4381.54,4250.26,3883.59,1655,1690,3.956,0,0,0,0,1,0,
67,4347.69,3808.72,4260.51,4008.72,3951.28,3618.46,4355.38,4473.33,4809.23,4440,4434.87,4364.62,4255.38,3871.28,1656,1690,3.964,0,0,0,0,1,0,
68,4345.13,3831.28,4257.44,4014.87,3944.62,3623.59,4356.92,4472.82,4808.21,4426.67,4442.05,4370.26,4212.82,3884.62,1655,1690,3.972,0,0,0,0,1,0,
69,4357.95,3839.49,4264.1,4021.03,3958.46,3632.82,4364.62,4477.44,4817.44,4431.79,4473.33,4390.77,4207.18,3903.08,1655,1691,3.98,0,0,0,0,1,0,
70,4363.08,3808.21,4271.28,4011.79,3944.62,3628.21,4365.64,4477.44,4829.23,4443.59,4480,4395.38,4232.82,3906.67,1655,1689,3.988,0,0,0,0,1,0,
71,4349.74,3789.23,4264.62,3991.28,3929.23,3618.97,4357.44,4476.41,4831.79,4453.85,4452.82,4378.97,4251.79,3895.38,1654,1692,3.995,0,0,0,0,1,0,
72,4347.18,3832.31,4261.54,3996.41,3974.87,3627.18,4359.49,4484.1,4832.82,4477.95,4464.1,4384.62,4249.74,3893.85,1656,1691,4.003,0,0,0,0,1,0,
73,4348.72,3860,4262.05,4013.85,3995.9,3632.31,4359.49,4480.51,4827.18,4478.97,4480,4393.33,4229.74,3891.79,1654,1692,4.011,0,0,0,0,1,0,
74,4342.56,3832.31,4259.49,4004.1,3959.49,3621.03,4348.72,4464.1,4813.85,4451.79,4445.13,4376.41,4221.54,3884.1,1655,1692,4.019,0,0,0,0,1,0,
75,4343.59,3829.74,4264.1,3989.74,3962.05,3621.03,4348.21,4459.49,4810.77,4451.79,4435.38,4369.74,4241.54,3888.21,1655,1692,4.027,0,0,0,0,1,0,
76,4349.74,3831.79,4265.64,4004.62,3984.62,3626.15,4353.33,4463.08,4813.85,4462.56,4463.59,4377.44,4249.23,3884.1,1655,1692,4.034,0,0,0,0,1,0,
77,4347.18,3798.97,4260,4020.51,3973.33,3621.03,4352.31,4465.13,4809.23,4444.62,4456.41,4372.82,4237.95,3871.79,1654,1692,4.042,0,0,0,0,1,0,
78,4352.31,3820.51,4265.13,4016.41,3971.28,3631.28,4358.97,4469.23,4810.26,4435.38,4444.1,4374.36,4234.87,3888.21,1655,1693,4.05,0,0,0,0,1,0,
79,4353.33,3855.9,4266.67,4000.51,3958.97,3638.97,4365.13,4467.18,4815.9,4441.03,4443.59,4375.38,4234.36,3891.28,1654,1691,4.058,0,0,0,0,1,0,
80,4335.38,3823.08,4250.26,3995.9,3935.38,3617.44,4352.82,4456.41,4810.26,4431.79,4421.03,4357.44,4225.64,3858.97,1654,1692,4.066,0,0,0,0,1,0,
81,4329.74,3803.59,4246.67,4002.05,3948.21,3604.1,4344.62,4455.38,4807.69,4426.15,4420.51,4362.56,4206.15,3864.1,1655,1690,4.074,0,0,0,0,1,0,
82,4348.21,3833.33,4261.03,4004.62,3974.87,3620,4358.97,4472.82,4820.51,4450.26,4454.87,4384.62,4206.15,3897.95,1654,1691,4.081,0,0,0,0,1,0,
83,4361.54,3850.77,4271.28,4003.59,3984.1,3627.18,4368.21,4491.79,4836.41,4480.51,4468.21,4384.1,4246.67,3900.51,1656,1690,4.089,0,0,0,0,1,0,
84,4355.9,3838.97,4272.31,4002.05,3958.46,3616.41,4357.95,4485.64,4830.77,4470.26,4457.44,4380,4256.92,3893.85,1654,1690,4.097,0,0,0,0,1,0,
85,4353.33,3834.87,4276.92,4004.62,3936.41,3615.38,4352.82,4470.77,4818.97,4445.64,4472.31,4394.87,4211.28,3914.36,1656,1690,4.105,0,0,0,0,1,0,
86,4362.05,3839.49,4281.03,4013.33,3963.08,3624.1,4358.97,4472.31,4823.08,4456.92,4478.46,4397.95,4231.79,3921.54,1656,1689,4.113,0,0,0,0,1,0,
87,4365.64,3849.74,4270.77,4023.08,3981.54,3625.13,4360,4475.9,4829.74,4468.72,4447.69,4379.49,4303.59,3900,1655,1690,4.12,0,0,0,0,1,0,
88,4364.1,3856.92,4265.13,4020.51,3959.49,3620,4358.97,4471.28,4827.69,4459.49,4449.74,4383.08,4268.72,3898.46,1655,1690,4.128,0,0,0,0,1,0,
89,4365.13,3845.64,4279.49,4013.33,3955.38,3622.05,4363.08,4472.82,4826.67,4465.13,4483.59,4403.59,4217.44,3918.97,1655,1690,4.136,0,0,0,0,1,0,
90,4368.72,3849.23,4287.69,4018.97,3985.64,3635.38,4368.21,4481.54,4832.82,4475.9,4478.46,4401.54,4269.74,3920,1655,1689,4.144,0,0,0,0,1,0,
91,4362.05,3863.59,4270.26,4017.95,3974.87,3637.95,4366.15,4481.54,4832.31,4468.21,4449.23,4385.64,4284.1,3905.13,1655,1690,4.152,0,0,0,0,1,0,
92,4345.64,3823.08,4257.95,3991.28,3935.38,3618.46,4356.92,4466.67,4816.92,4450.77,4435.38,4370.26,4205.13,3891.28,1655,1688,4.16,0,0,0,0,1,0,
93,4337.44,3780.51,4257.44,3983.59,3944.62,3616.41,4358.46,4462.56,4812.31,4438.97,4427.18,4357.95,4188.72,3878.97,1654,1690,4.167,0,0,0,0,1,0,
94,4340.51,3827.18,4249.23,4006.15,3966.67,3637.44,4369.23,4473.85,4824.62,4442.56,4437.95,4361.03,4240,3880.51,1656,1689,4.175,0,0,0,0,1,0,
95,4345.64,3867.18,4250.26,4010.77,3963.59,3635.38,4367.69,4479.49,4829.74,4454.87,4460,4375.9,4241.54,3894.36,1654,1689,4.183,0,0,0,0,1,0,
96,4351.79,3840,4265.64,4008.72,3975.9,3618.97,4364.62,4483.08,4831.28,4473.33,4458.97,4383.59,4220.51,3903.08,1655,1690,4.191,0,0,0,0,1,0,
97,4355.38,3849.23,4268.72,4012.82,4003.59,3623.08,4368.21,4488.72,4836.92,4490.77,4460,4381.03,4261.54,3905.64,1654,1690,4.199,0,0,0,0,1,0,
98,4358.46,3854.87,4264.1,4011.79,3976.92,3624.1,4361.03,4476.92,4827.69,4478.97,4473.85,4381.03,4293.85,3904.1,1655,1692,4.206,0,0,0,0,1,0,
99,4362.56,3801.54,4272.82,4013.33,3928.72,3609.23,4349.23,4462.56,4812.31,4450.26,4467.69,4387.69,4231.28,3901.54,1655,1691,4.214,0,0,0,0,1,0,
100,4351.79,3808.72,4267.69,4012.82,3946.15,3609.74,4352.31,4467.18,4814.36,4453.85,4449.23,4383.08,4203.08,3890.26,1654,1692,4.222,0,0,0,0,1,0,
101,4341.03,3861.03,4252.82,4006.67,3976.92,3623.08,4361.03,4470.77,4817.44,4467.18,4438.46,4367.18,4256.41,3881.54,1655,1691,4.23,0,0,0,0,1,0,
102,4348.21,3844.62,4258.97,4001.54,3959.49,3617.95,4357.44,4460.51,4808.72,4444.62,4444.1,4373.33,4214.36,3901.54,1655,1692,4.238,0,0,0,0,1,0,
103,4346.15,3818.46,4261.03,3991.79,3944.1,3607.18,4352.31,4456.41,4807.69,4426.15,4453.33,4385.13,4148.21,3908.21,1655,1691,4.246,0,0,0,0,1,0,
104,4337.95,3842.56,4248.21,3995.9,3968.21,3613.85,4356.41,4465.64,4817.95,4448.72,4445.64,4369.23,4232.82,3878.97,1654,1693,4.253,0,0,0,0,1,0,
105,4340.51,3841.03,4245.13,4013.85,3972.82,3622.56,4360.51,4466.67,4818.97,4463.59,4430.26,4353.33,4302.05,3867.18,1657,1693,4.261,0,0,0,0,1,0,
106,4337.44,3814.36,4247.69,4002.05,3952.31,3617.44,4357.44,4455.9,4806.15,4438.46,4424.62,4359.49,4241.03,3877.95,1655,1693,4.269,0,0,0,0,1,0,
107,4332.31,3829.23,4247.69,3992.31,3968.72,3617.44,4364.1,4464.1,4814.87,4432.31,4434.36,4371.28,4214.87,3881.54,1655,1694,4.278,0,0,0,0,1,0,
108,4343.08,3851.79,4258.97,4012.82,3980.51,3626.67,4376.92,4484.1,4833.85,4462.56,4450.77,4382.56,4234.36,3888.72,1656,1691,4.285,0,0,0,0,1,0,
109,4345.13,3848.21,4265.64,4015.9,3962.05,3622.56,4370.77,4474.87,4823.59,4467.18,4462.05,4384.62,4218.46,3896.41,1655,1692,4.293,0,0,0,0,1,0,
110,4339.49,3838.97,4262.05,4010.77,3963.08,3616.92,4357.95,4460,4808.72,4454.36,4457.44,4375.38,4233.33,3892.82,1655,1691,4.3,0,0,0,0,1,0,
111,4347.18,3829.74,4266.15,4022.56,3968.72,3621.54,4356.41,4467.69,4814.87,4461.54,4446.15,4375.38,4258.46,3891.79,1655,1691,4.308,0,0,0,0,1,0,
112,4346.67,3833.33,4263.59,4018.97,3964.1,3615.38,4353.85,4468.72,4817.95,4462.05,4436.92,4375.9,4230.26,3885.64,1656,1692,4.316,0,0,0,0,1,0,
113,4335.9,3851.79,4252.31,4000,3969.74,3604.62,4350.26,4462.05,4813.33,4455.9,4442.56,4371.79,4208.72,3883.08,1655,1693,4.324,0,0,0,0,1,0,
114,4333.85,3837.95,4250.26,3990.26,3954.36,3601.54,4346.67,4454.36,4804.62,4451.28,4445.64,4366.67,4215.38,3884.62,1655,1693,4.332,0,0,0,0,1,0,
115,4332.31,3810.26,4248.72,3991.79,3930.77,3604.62,4347.18,4442.05,4791.79,4432.82,4423.08,4356.92,4220,3866.67,1655,1693,4.339,0,0,0,0,1,0,
116,4338.97,3821.03,4251.28,4010.77,3964.62,3614.36,4358.46,4446.15,4798.46,4421.54,4427.69,4365.13,4218.97,3872.31,1655,1692,4.347,0,0,0,0,1,0,
117,4351.28,3835.38,4268.21,4019.49,3989.74,3623.59,4368.72,4460.51,4813.85,4431.79,4456.41,4388.21,4191.28,3910.77,1655,1692,4.355,0,0,0,0,1,0,
118,4345.64,3837.44,4270.77,4008.72,3963.08,3624.62,4366.15,4456.41,4808.21,4444.62,4449.74,4379.49,4187.69,3906.67,1655,1690,4.363,0,0,0,0,1,0,
119,4326.15,3844.62,4251.28,3997.95,3955.38,3617.44,4359.49,4448.21,4800,4449.23,4427.69,4354.87,4237.44,3866.67,1655,1690,4.371,0,0,0,0,1,0,
120,4321.54,3835.38,4240.51,3997.44,3966.67,3607.69,4351.28,4450.26,4802.56,4444.1,4423.08,4356.41,4255.9,3860,1655,1688,4.379,0,0,0,0,1,0,
121,4335.38,3825.64,4253.33,3999.49,3969.23,3607.18,4352.82,4456.41,4809.23,4447.18,4438.46,4369.23,4234.87,3879.49,1655,1688,4.386,0,0,0,0,1,0,
122,4345.64,3844.62,4265.13,4003.08,3973.33,3623.59,4367.18,4468.72,4818.46,4466.15,4460,4377.95,4217.95,3891.28,1656,1688,4.394,0,0,0,0,1,0,
123,4343.59,3844.1,4257.44,4010.77,3969.74,3627.18,4366.15,4468.21,4816.41,4463.08,4443.08,4371.79,4211.79,3887.18,1655,1688,4.402,0,0,0,0,1,0,
124,4337.44,3824.1,4243.08,4006.67,3958.46,3609.23,4351.79,4454.36,4805.13,4438.97,4408.21,4355.9,4228.21,3872.82,1656,1688,4.41,0,0,0,0,1,0,
125,4338.46,3834.87,4249.23,4002.05,3962.05,3607.69,4354.87,4456.41,4808.72,4443.59,4426.67,4358.97,4238.46,3874.36,1654,1688,4.418,0,0,0,0,1,0,
126,4341.54,3837.95,4257.44,4010.77,3953.33,3619.49,4361.03,4462.56,4815.9,4454.36,4452.82,4371.28,4208.21,3885.64,1655,1691,4.425,0,0,0,0,1,0,
127,4342.56,3828.21,4250.26,4009.74,3946.15,3621.54,4358.46,4457.44,4811.28,4443.08,4438.97,4367.69,4211.28,3876.92,1655,1689,4.433,0,0,0,0,1,0,
128,4346.15,3847.69,4249.74,4003.08,3966.67,3617.44,4361.54,4456.92,4809.23,4438.46,4433.85,4361.54,4255.38,3874.36,1654,1692,4.441,0,0,0,0,1,0,
0,4353.33,3851.79,4264.1,4009.74,3967.18,3617.95,4367.18,4461.03,4813.85,4440,4444.1,4367.18,4247.69,3894.36,1655,1690,4.448,0,0,0,0,1,0,
1,4360.51,3830.77,4270.77,4022.05,3952.82,3624.1,4368.21,4462.05,4815.9,4442.05,4448.21,4377.95,4220.51,3905.13,1655,1691,4.457,0,0,0,0,1,0,
2,4356.41,3831.79,4263.59,4007.69,3958.46,3621.54,4363.08,4462.05,4814.36,4455.38,4443.59,4380.51,4225.13,3898.46,1655,1691,4.465,0,0,0,0,1,0,
3,4346.15,3844.1,4258.46,3989.74,3961.03,3604.1,4353.85,4463.59,4814.36,4464.1,4439.49,4372.31,4213.33,3900,1654,1692,4.472,0,0,0,0,1,0,
4,4351.28,3834.87,4263.08,4002.56,3951.28,3600.51,4356.41,4470.26,4815.9,4460.51,4453.33,4375.9,4201.54,3908.72,1655,1692,4.48,0,0,0,0,1,0,
5,4361.03,3826.15,4267.69,4025.13,3956.92,3623.08,4371.28,4474.87,4816.92,4460,4461.03,4384.1,4249.74,3903.08,1653,1692,4.488,0,0,0,0,1,0,
6,4353.85,3826.67,4261.03,4017.44,3958.46,3621.03,4369.74,4471.28,4814.87,4455.38,4445.13,4374.87,4276.92,3894.87,1655,1692,4.495,0,0,0,0,1,0,
7,4348.21,3830.77,4258.97,3997.95,3941.54,3598.97,4358.46,4473.33,4814.87,4441.54,4442.56,4374.36,4216.92,3898.46,1654,1691,4.504,0,0,0,0,1,0,
8,4352.31,3835.38,4263.59,4000,3940,3607.18,4364.62,4476.92,4816.92,4436.41,4449.23,4377.44,4194.36,3897.95,1655,1692,4.511,0,0,0,0,1,0,
9,4347.69,3830.26,4256.92,4006.67,3960,3624.62,4372.31,4465.13,4810.77,4434.87,4441.54,4367.18,4243.08,3891.28,1655,1689,4.519,0,0,0,0,1,0,
10,4341.03,3834.36,4250.26,4014.36,3961.03,3620.51,4366.67,4454.36,4805.64,4431.79,4442.05,4369.74,4228.72,3892.82,1655,1691,4.527,0,0,0,0,1,0,
11,4346.15,3858.97,4257.44,4015.9,3954.36,3615.9,4362.56,4460,4811.79,4445.64,4449.23,4378.97,4191.79,3893.33,1656,1690,4.535,0,0,0,0,1,0,
12,4357.95,3850.26,4273.33,4009.74,3971.28,3620.51,4368.21,4466.67,4816.41,4462.56,4446.15,4378.97,4235.9,3899.49,1655,1692,4.543,0,0,0,0,1,0,
13,4357.95,3810.77,4273.33,4013.85,3980.51,3621.03,4366.15,4456.92,4811.79,4458.46,4436.92,4371.79,4271.79,3904.62,1655,1692,4.551,0,0,0,0,1,0,
14,4346.15,3823.08,4252.82,4013.85,3967.69,3615.9,4357.44,4447.69,4808.72,4443.08,4428.21,4364.62,4247.18,3894.36,1655,1692,4.558,0,0,0,0,1,0,
15,4343.08,3871.28,4246.67,4007.18,3958.46,3617.44,4364.1,4457.44,4813.33,4440,4436.92,4372.31,4235.9,3890.77,1655,1691,4.566,0,0,0,0,1,0,
16,4353.85,3869.23,4263.59,4020,3962.56,3623.08,4374.36,4465.64,4816.41,4448.21,4443.08,4382.05,4265.13,3895.9,1653,1690,4.574,0,0,0,0,1,0,
17,4357.44,3847.18,4266.67,4031.28,3975.38,3620.51,4370.26,4457.95,4812.82,4452.31,4430.77,4372.82,4263.59,3895.9,1655,1690,4.582,0,0,0,0,1,0,
18,4359.49,3842.56,4261.54,4013.33,3974.36,3617.44,4369.23,4463.59,4813.33,4443.08,4446.15,4383.08,4201.54,3913.85,1654,1689,4.59,0,0,0,0,1,0,
19,4367.18,3829.74,4276.41,3992.82,3952.31,3621.54,4381.54,4478.46,4815.9,4432.31,4467.18,4406.15,4187.69,3930.77,1654,1691,4.597,0,0,0,0,1,0,
20,4364.62,3846.15,4281.54,4009.23,3967.18,3624.62,4383.59,4475.9,4815.38,4451.28,4441.54,4389.23,4255.38,3913.85,1654,1690,4.604,0,0,0,0,1,0,
21,4364.62,3874.36,4278.46,4042.05,4001.54,3624.62,4380.51,4475.38,4820.51,4482.56,4442.56,4379.49,4287.18,3907.18,1653,1692,4.613,0,0,0,0,1,0,
22,4368.72,3841.03,4283.59,4038.97,3956.92,3622.56,4374.87,4472.31,4820,4469.23,4467.69,4392.31,4251.79,3909.23,1655,1691,4.621,0,0,0,0,1,0,
23,4361.03,3828.21,4275.38,4014.36,3928.21,3619.49,4367.18,4461.03,4810.26,4431.79,4445.13,4383.59,4238.97,3900,1653,1691,4.629,0,0,0,0,1,0,
24,4356.92,3866.15,4266.67,4016.92,3987.69,3621.54,4373.85,4469.23,4814.36,4434.36,4434.36,4384.62,4254.36,3905.64,1655,1691,4.637,0,0,0,0,1,0,
25,4356.92,3858.46,4270.26,4021.54,3987.69,3622.05,4375.9,4471.79,4813.85,4452.82,4452.31,4392.31,4248.21,3909.23,1654,1691,4.644,0,0,0,0,1,0,
26,4347.69,3831.79,4264.62,4011.79,3934.36,3616.41,4363.59,4454.87,4802.05,4446.67,4444.1,4374.87,4234.87,3891.79,1654,1692,4.652,0,0,0,0,1,0,
27,4349.74,3845.64,4257.95,4010.26,3957.44,3618.46,4367.69,4460.51,4812.82,4441.03,4436.41,4368.72,4243.08,3885.64,1654,1691,4.66,0,0,0,0,1,0,
28,4362.56,3848.21,4269.23,4011.28,3994.87,3623.08,4381.54,4479.49,4827.18,4450.26,4444.62,4381.54,4256.92,3897.44,1655,1692,4.668,0,0,0,0,1,0,
29,4361.54,3848.72,4279.49,4020,3978.46,3620.51,4377.95,4476.92,4817.44,4456.92,4451.28,4387.69,4244.1,3908.72,1655,1691,4.676,0,0,0,0,1,0,
30,4362.56,3856.92,4275.9,4032.31,3964.1,3618.46,4367.69,4472.82,4814.87,4460,4456.41,4389.23,4254.87,3914.36,1655,1691,4.684,0,0,0,0,1,0,
31,4376.41,3837.95,4274.87,4022.56,3961.54,3617.95,4368.72,4477.95,4828.21,4465.64,4460.51,4389.74,4269.23,3914.36,1656,1689,4.691,0,0,0,0,1,0,
32,4376.92,3844.1,4280.51,4020.51,3967.18,3620.51,4375.38,4483.08,4831.28,4458.97,4468.72,4394.87,4233.33,3916.41,1654,1690,4.699,0,0,0,0,1,0,
33,4363.08,3863.08,4275.9,4027.18,3974.36,3620.51,4375.38,4480,4821.03,4447.69,4466.67,4401.03,4223.59,3916.41,1656,1689,4.707,0,0,0,0,1,0,
34,4354.36,3843.08,4260.51,4008.21,3950.77,3608.72,4362.05,4463.08,4806.67,4442.56,4444.62,4387.18,4253.33,3911.28,1654,1690,4.715,0,0,0,0,1,0,
35,4354.87,3833.33,4264.1,3996.41,3942.56,3604.62,4361.03,4460,4806.67,4439.49,4443.59,4375.38,4263.59,3906.67,1655,1692,4.723,0,0,0,0,1,0,
36,4357.95,3851.28,4276.92,4020,3977.95,3622.56,4382.56,4480,4823.08,4451.28,4460.51,4384.1,4264.62,3898.97,1655,1691,4.73,0,0,0,0,1,0,
37,4357.44,3852.82,4267.18,4036.41,3980,3629.23,4386.67,4478.97,4821.03,4463.59,4450.77,4384.1,4250.26,3892.82,1654,1692,4.738,0,0,0,0,1,0,
38,4347.18,3840.51,4247.18,4022.56,3952.82,3611.28,4363.08,4456.92,4801.54,4447.69,4435.9,4369.23,4225.13,3886.15,1655,1692,4.746,0,0,0,0,1,0,
39,4335.38,3837.44,4242.05,4004.1,3962.05,3602.56,4354.87,4455.38,4796.41,4431.28,4428.72,4355.9,4237.44,3874.87,1654,1693,4.754,0,0,0,0,1,0,
40,4339.49,3832.82,4248.72,4003.59,3979.49,3607.18,4363.59,4457.44,4799.49,4438.97,4423.08,4354.87,4240.51,3875.9,1654,1693,4.762,0,0,0,0,1,0,
41,4347.69,3831.79,4251.28,4017.44,3965.13,3605.13,4360,4446.15,4795.9,4433.85,4434.87,4364.62,4213.85,3883.08,1654,1694,4.77,0,0,0,0,1,0,
42,4338.97,3841.03,4244.62,4025.13,3954.36,3605.13,4354.36,4446.15,4796.41,4418.97,4438.46,4365.64,4221.03,3875.9,1653,1691,4.777,0,0,0,0,1,0,
43,4337.44,3860.51,4249.74,4017.95,3968.21,3616.41,4363.59,4452.31,4800.51,4433.85,4429.74,4363.08,4251.28,3884.62,1654,1691,4.785,0,0,0,0,1,0,
44,4353.85,3860,4267.69,4007.69,3980,3628.72,4373.33,4453.33,4799.49,4447.18,4435.9,4368.72,4261.54,3903.59,1654,1690,4.793,0,0,0,0,1,0,
45,4352.82,3836.92,4257.95,4012.82,3969.74,3622.56,4366.67,4454.87,4800.51,4432.82,4443.08,4368.72,4244.62,3889.74,1654,1691,4.801,0,0,0,0,1,0,
46,4337.44,3845.13,4243.59,4028.72,3964.1,3610.77,4361.03,4451.79,4800,4425.13,4442.56,4362.05,4229.23,3872.31,1654,1691,4.809,0,0,0,0,1,0,
47,4346.67,3860,4260.51,4031.79,3978.97,3615.38,4363.59,4443.59,4796.41,4431.28,4446.15,4367.18,4235.38,3890.26,1655,1692,4.816,0,0,0,0,1,0,
48,4357.95,3834.87,4267.18,4013.33,3973.85,3620,4362.05,4441.54,4794.87,4426.67,4444.1,4375.9,4214.87,3904.62,1654,1692,4.824,0,0,0,0,1,0,
49,4339.49,3828.21,4245.64,4004.1,3952.31,3607.18,4357.95,4446.67,4794.36,4424.62,4430.77,4365.64,4200.51,3879.49,1655,1693,4.832,0,0,0,0,1,0,
50,4334.36,3862.05,4241.03,4020.51,3966.15,3607.18,4363.08,4453.33,4800,4447.69,4442.05,4362.05,4245.64,3874.87,1655,1692,4.84,0,0,0,0,1,0,
51,4354.87,3874.87,4260,4022.05,3982.05,3623.59,4371.79,4464.1,4810.26,4464.62,4472.31,4375.38,4261.03,3900,1654,1694,4.848,0,0,0,0,1,0,
52,4354.87,3857.95,4266.15,4009.74,3977.44,3623.59,4373.33,4471.28,4814.87,4458.46,4464.1,4375.9,4251.28,3897.95,1655,1693,4.856,0,0,0,0,1,0,
53,4341.54,3848.21,4255.9,4023.08,3984.1,3615.38,4373.33,4476.41,4814.87,4457.95,4434.87,4363.59,4286.67,3876.92,1654,1693,4.863,0,0,0,0,1,0,
54,4339.49,3849.74,4247.69,4035.9,3978.46,3617.44,4373.33,4475.38,4816.41,4456.41,4433.33,4360,4282.05,3874.36,1655,1693,4.871,0,0,0,0,1,0,
55,4344.62,3849.23,4251.28,4022.05,3956.41,3621.03,4371.28,4464.1,4813.33,4445.64,4438.97,4362.56,4244.1,3888.72,1655,1691,4.879,0,0,0,0,1,0,
56,4347.69,3848.72,4252.82,4013.33,3969.23,3621.54,4370.26,4456.41,4806.15,4444.1,4438.97,4365.64,4244.1,3892.82,1655,1690,4.887,0,0,0,0,1,0,
57,4346.15,3847.18,4247.18,4014.36,3988.21,3618.46,4364.1,4457.44,4798.46,4445.13,4449.23,4371.28,4236.41,3884.62,1655,1690,4.895,0,0,0,0,1,0,
58,4347.18,3846.15,4254.36,4010.77,3975.38,3617.44,4357.95,4457.95,4796.92,4447.18,4448.21,4371.28,4228.21,3883.59,1655,1690,4.902,0,0,0,0,1,0,
59,4350.26,3850.77,4264.62,4023.08,3969.74,3622.56,4364.62,4455.9,4804.1,4451.79,4445.13,4374.36,4247.18,3896.41,1655,1690,4.91,0,0,0,0,1,0,
60,4347.18,3868.21,4262.05,4031.79,3977.95,3621.54,4374.87,4463.59,4811.28,4448.72,4458.46,4381.03,4253.33,3897.44,1655,1692,4.918,0,0,0,0,1,0,
61,4349.74,3868.21,4268.72,4019.49,3981.54,3622.05,4374.36,4476.41,4814.36,4452.31,4456.41,4383.08,4253.33,3893.85,1656,1691,4.926,0,0,0,0,1,0,
62,4361.54,3838.46,4283.08,4021.54,3981.03,3629.23,4374.87,4476.41,4813.85,4464.62,4441.03,4382.05,4265.64,3907.18,1653,1692,4.934,0,0,0,0,1,0,
63,4352.82,3836.92,4273.33,4028.21,3978.97,3627.18,4379.49,4469.74,4809.74,4460,4443.59,4375.9,4271.28,3902.56,1655,1691,4.942,0,0,0,0,1,0,
64,4345.64,3864.62,4265.64,4033.85,3984.62,3626.15,4380.51,4471.79,4811.79,4454.36,4468.72,4392.82,4248.72,3905.13,1654,1691,4.949,0,0,0,0,1,0,
65,4361.03,3874.87,4279.49,4037.95,3993.33,3637.44,4380.51,4478.97,4820.51,4461.03,4480.51,4412.82,4225.64,3929.23,1654,1692,4.957,0,0,0,0,1,0,
66,4356.92,3871.28,4273.33,4027.69,3985.64,3638.46,4378.46,4476.41,4818.97,4460,4460,4390.26,4242.56,3911.79,1655,1691,4.965,0,0,0,0,1,0,
67,4346.15,3878.97,4263.59,4020.51,3982.56,3628.21,4371.28,4468.72,4811.79,4464.62,4449.23,4371.79,4286.15,3887.18,1655,1692,4.972,0,0,0,0,1,0,
68,4360,3876.41,4279.49,4029.23,3995.38,3632.31,4375.38,4471.79,4818.97,4473.85,4473.85,4394.87,4291.28,3912.31,1655,1691,4.981,0,0,0,0,1,0,
69,4368.72,3853.85,4289.74,4030.26,3994.87,3639.49,4384.1,4484.62,4829.74,4470.77,4487.18,4408.21,4250.77,3930.77,1655,1691,4.988,0,0,0,0,1,0,
70,4359.49,3858.46,4283.59,4029.74,3995.9,3635.9,4383.59,4490.26,4829.74,4483.08,4468.21,4397.95,4247.69,3912.31,1655,1690,4.996,0,0,0,0,1,0,
71,4369.23,3884.1,4293.85,4057.95,4016.92,3643.08,4389.74,4491.28,4828.72,4494.87,4469.23,4407.69,4285.64,3922.05,1655,1690,5.004,0,0,0,0,1,0,
72,4379.49,3884.1,4303.08,4066.67,4008.21,3654.87,4400,4492.82,4828.21,4474.36,4495.9,4422.56,4267.69,3949.74,1655,1689,5.012,0,0,0,0,1,0,
73,4362.56,3868.72,4285.13,4034.36,3988.72,3652.31,4395.9,4489.74,4824.1,4463.59,4486.15,4402.56,4235.9,3928.72,1653,1691,5.02,0,0,0,0,1,0,
74,4352.82,3874.36,4273.85,4024.1,4007.18,3649.74,4392.82,4488.21,4827.69,4474.36,4455.9,4382.56,4278.97,3898.97,1655,1690,5.028,0,0,0,0,1,0,
75,4366.67,3870.26,4290.26,4038.97,3999.49,3650.26,4396.41,4491.79,4831.79,4468.21,4465.13,4394.36,4299.49,3912.31,1653,1689,5.035,0,0,0,0,1,0,
76,4372.82,3851.79,4301.54,4038.97,3963.08,3641.54,4392.82,4493.33,4828.72,4466.15,4484.1,4406.67,4261.03,3931.79,1654,1691,5.043,0,0,0,0,1,0,
77,4365.13,3868.21,4290.26,4029.74,3976.92,3634.36,4385.64,4490.77,4828.72,4478.97,4470.77,4398.97,4251.28,3927.69,1654,1691,5.051,0,0,0,0,1,0,
78,4364.62,3891.79,4288.72,4037.44,4011.28,3636.92,4383.59,4488.72,4830.26,4481.03,4473.33,4397.95,4263.59,3922.05,1654,1692,5.059,0,0,0,0,1,0,
79,4374.87,3877.95,4300,4056.92,4020,3643.08,4386.15,4488.72,4831.28,4488.72,4491.79,4407.18,4272.82,3927.18,1655,1691,5.067,0,0,0,0,1,0,
80,4375.9,3856.92,4293.85,4060,4017.95,3650.26,4389.23,4489.74,4831.79,4494.36,4481.03,4406.67,4269.23,3936.92,1654,1691,5.075,0,0,0,0,1,0,
81,4363.08,3869.74,4276.41,4038.46,4010.77,3650.26,4391.28,4488.21,4828.72,4477.44,4466.15,4397.95,4255.9,3934.36,1655,1690,5.082,0,0,0,0,1,0,
82,4352.31,3890.26,4268.21,4023.08,3997.95,3640.51,4388.72,4486.15,4825.13,4472.82,4466.67,4384.1,4272.82,3907.18,1655,1690,5.09,0,0,0,0,1,0,
83,4356.41,3882.05,4274.87,4031.79,3990.77,3637.44,4388.72,4489.23,4826.15,4475.38,4464.1,4380.51,4295.9,3897.44,1656,1689,5.098,0,0,0,0,1,0,
84,4358.46,3870.26,4278.97,4034.87,3987.69,3641.03,4392.31,4491.79,4826.67,4464.1,4463.59,4386.15,4273.85,3911.28,1655,1689,5.106,0,0,0,0,1,0,
85,4354.36,3876.92,4275.38,4027.18,4004.62,3642.56,4394.36,4490.26,4825.13,4469.74,4470.77,4382.56,4267.18,3909.23,1656,1690,5.114,0,0,0,0,1,0,
86,4360,3876.92,4278.46,4032.31,4022.56,3644.1,4393.33,4492.31,4828.21,4492.31,4474.36,4381.54,4287.69,3905.13,1654,1691,5.121,0,0,0,0,1,0,
87,4363.59,3866.67,4278.97,4040,4005.64,3651.79,4394.87,4494.36,4830.26,4493.85,4474.87,4385.64,4270.77,3911.79,1655,1693,5.129,0,0,0,0,1,0,
88,4354.87,3863.59,4268.21,4035.9,3984.1,3656.92,4397.95,4492.31,4824.62,4476.41,4473.33,4381.03,4254.36,3909.23,1655,1692,5.137,0,0,0,0,1,0,
89,4350.26,3867.69,4265.13,4022.05,3985.13,3644.1,4391.28,4489.23,4820.51,4469.74,4472.31,4376.41,4263.59,3903.08,1653,1693,5.145,0,0,0,0,1,0,
90,4359.49,3865.64,4278.97,4025.13,3990.26,3637.44,4388.72,4488.21,4823.59,4473.85,4475.38,4386.15,4254.36,3915.9,1655,1692,5.153,0,0,0,0,1,0,
91,4367.69,3855.38,4284.62,4043.08,3999.49,3652.82,4400.51,4493.33,4829.74,4479.49,4476.92,4395.38,4238.97,3928.72,1653,1692,5.16,0,0,0,0,1,0,
92,4361.54,3856.92,4272.31,4044.1,4001.54,3656.41,4402.56,4497.44,4830.26,4472.31,4474.87,4391.79,4262.05,3922.05,1653,1692,5.168,0,0,0,0,1,0,
93,4350.26,3862.56,4266.67,4036.92,3985.13,3636.41,4386.67,4487.69,4821.54,4460.51,4476.92,4384.1,4278.46,3911.28,1653,1692,5.176,0,0,0,0,1,0,
94,4350.77,3859.49,4269.74,4032.82,3977.95,3632.31,4381.54,4477.44,4816.92,4471.28,4475.9,4381.03,4262.56,3905.64,1654,1692,5.184,0,0,0,0,1,0,
95,4357.95,3869.74,4268.21,4025.13,3997.44,3655.38,4395.38,4486.67,4826.15,4489.23,4472.82,4383.59,4265.64,3907.18,1654,1693,5.192,0,0,0,0,1,0,
96,4357.95,3888.72,4268.21,4033.33,4014.87,3658.97,4399.49,4497.95,4833.33,4491.79,4483.59,4394.36,4265.64,3917.95,1655,1693,5.2,0,0,0,0,1,0,
97,4358.97,3875.38,4277.95,4044.62,4004.62,3636.41,4387.18,4488.21,4825.64,4484.62,4488.21,4397.95,4268.21,3919.49,1655,1693,5.207,0,0,0,0,1,0,
98,4363.59,3862.56,4280,4035.9,3995.9,3637.44,4385.64,4480,4824.62,4483.08,4474.87,4386.15,4295.38,3908.21,1656,1691,5.215,0,0,0,0,1,0,
99,4360.51,3869.23,4271.28,4034.36,3988.72,3654.87,4391.79,4480.51,4830.26,4476.92,4470.26,4380.51,4275.38,3910.26,1655,1691,5.223,0,0,0,0,1,0,
100,4353.33,3843.59,4269.74,4042.56,3975.38,3645.13,4387.18,4473.33,4821.54,4461.03,4471.28,4380,4244.62,3911.79,1656,1690,5.231,0,0,0,0,1,0,
101,4356.41,3841.03,4271.28,4035.38,3984.1,3634.36,4389.74,4477.44,4821.03,4461.54,4471.28,4384.1,4277.95,3895.9,1655,1690,5.239,0,0,0,0,1,0,
102,4356.92,3876.41,4268.21,4025.64,3992.82,3640.51,4393.33,4487.18,4828.21,4471.79,4482.56,4387.69,4283.08,3893.85,1655,1689,5.247,0,0,0,0,1,0,
103,4344.1,3865.64,4259.49,4023.59,3985.64,3636.41,4384.1,4480,4824.1,4472.31,4476.41,4377.95,4251.28,3903.08,1655,1689,5.254,0,0,0,0,1,0,
104,4346.67,3849.23,4258.46,4024.1,3994.36,3633.33,4386.67,4481.54,4823.08,4474.87,4463.08,4374.87,4264.1,3908.21,1656,1689,5.262,0,0,0,0,1,0,
105,4367.69,3874.36,4266.67,4037.95,4001.03,3643.08,4396.92,4491.79,4830.26,4480,4487.69,4400,4258.46,3926.67,1654,1689,5.27,0,0,0,0,1,0,
106,4370.77,3877.95,4262.56,4043.08,3976.92,3641.03,4388.72,4483.59,4828.21,4468.72,4495.38,4404.62,4247.18,3929.23,1655,1691,5.278,0,0,0,0,1,0,
107,4355.9,3857.95,4253.33,4022.56,3964.62,3631.79,4382.56,4478.97,4825.64,4460.51,4462.05,4382.05,4277.95,3910.26,1656,1689,5.286,0,0,0,0,1,0,
108,4354.36,3861.54,4254.87,4014.36,3980,3635.9,4389.23,4483.08,4827.69,4472.31,4457.44,4381.03,4277.95,3908.21,1655,1692,5.293,0,0,0,0,1,0,
109,4371.79,3870.26,4262.05,4040,3996.92,3647.18,4390.26,4480,4826.67,4482.05,4487.18,4396.92,4274.36,3928.21,1655,1691,5.301,0,0,0,0,1,0,
110,4385.64,3874.87,4265.13,4060.51,4004.1,3652.31,4393.33,4486.67,4835.38,4488.21,4503.59,4409.74,4306.15,3947.18,1655,1692,5.309,0,0,0,0,1,0,
111,4378.46,3880.51,4260,4049.23,3990.77,3645.13,4396.41,4496.41,4845.64,4489.23,4501.03,4411.28,4312.31,3943.59,1655,1692,5.317,0,0,0,0,1,0,
112,4369.74,3879.49,4251.28,4042.05,3987.69,3636.92,4393.33,4496.92,4844.62,4494.87,4494.87,4400.51,4303.08,3930.77,1655,1692,5.326,0,0,0,0,1,0,
113,4370.77,3876.41,4245.13,4041.54,4001.03,3640,4394.36,4502.56,4842.56,4504.62,4492.31,4395.9,4293.33,3926.15,1656,1693,5.333,0,0,0,0,1,0,
114,4363.59,3882.56,4238.97,4027.18,4009.74,3646.67,4398.46,4509.23,4845.13,4501.03,4493.85,4397.44,4284.62,3920.51,1654,1692,5.34,0,0,0,0,1,0,
115,4352.31,3883.59,4231.28,4028.21,4004.62,3649.74,4397.44,4502.56,4843.59,4489.74,4490.77,4390.77,4298.97,3907.69,1656,1692,5.348,0,0,0,0,1,0,
116,4356.92,3864.62,4232.31,4041.03,3986.67,3654.87,4398.46,4496.92,4834.36,4487.18,4488.21,4385.13,4303.08,3906.67,1656,1691,5.356,0,0,0,0,1,0,
117,4359.49,3851.79,4235.9,4025.13,3976.92,3650.77,4395.9,4488.21,4824.62,4475.38,4475.9,4388.21,4264.62,3914.36,1656,1691,5.364,0,0,0,0,1,0,
118,4351.28,3871.28,4228.72,4013.85,3998.46,3635.38,4383.59,4476.41,4824.1,4465.13,4463.08,4386.15,4252.82,3911.28,1656,1689,5.372,0,0,0,0,1,0,
119,4357.44,3882.05,4230.26,4038.97,4009.74,3637.44,4383.59,4482.05,4829.74,4476.41,4478.97,4389.23,4282.05,3915.38,1655,1691,5.379,0,0,0,0,1,0,
120,4368.21,3860.51,4241.03,4051.79,3985.64,3646.67,4387.69,4487.69,4827.18,4475.9,4495.9,4397.44,4294.87,3923.59,1657,1690,5.387,0,0,0,0,1,0,
121,4367.69,3868.21,4241.03,4043.08,3985.13,3638.46,4381.03,4478.97,4826.67,4470.26,4494.87,4398.46,4296.92,3927.69,1655,1691,5.395,0,0,0,0,1,0,
122,4365.13,3885.64,4230.26,4044.1,3992.31,3632.82,4377.44,4469.74,4825.13,4480.51,4488.21,4392.82,4287.69,3924.62,1656,1691,5.403,0,0,0,0,1,0,
123,4366.15,3865.13,4227.69,4044.1,3983.08,3645.64,4385.13,4476.41,4824.1,4487.69,4484.62,4389.23,4271.28,3918.97,1655,1691,5.411,0,0,0,0,1,0,
124,4368.21,3864.62,4231.79,4047.69,4007.18,3653.85,4389.74,4489.74,4835.9,4495.38,4486.15,4392.82,4281.54,3927.18,1654,1692,5.419,0,0,0,0,1,0,
125,4368.72,3891.28,4233.85,4049.74,4033.33,3650.26,4389.23,4493.33,4839.49,4500.51,4495.9,4401.03,4286.15,3931.28,1654,1693,5.426,0,0,0,0,1,0,
126,4362.05,3893.33,4230.26,4025.13,3998.97,3649.23,4388.21,4490.26,4828.21,4475.38,4492.82,4395.38,4280,3913.85,1654,1693,5.434,0,0,0,0,1,0,
127,4352.31,3868.72,4221.03,4022.56,3971.28,3649.23,4386.67,4488.21,4826.67,4451.28,4472.31,4380.51,4272.82,3902.56,1653,1692,5.442,0,0,0,0,1,0,
128,4356.92,3863.59,4218.97,4052.82,4001.54,3649.74,4389.23,4493.33,4834.87,4472.31,4467.69,4385.13,4261.03,3918.46,1653,1692,5.45,0,0,0,0,1,0,
0,4368.72,3868.21,4229.74,4050.26,4005.64,3651.28,4389.74,4492.82,4831.28,4497.95,4490.77,4398.97,4262.56,3934.36,1654,1690,5.458,0,0,0,0,1,0,
1,4366.67,3870.77,4227.69,4032.82,3986.67,3649.74,4385.64,4486.67,4817.44,4495.38,4497.95,4390.77,4307.18,3920.51,1653,1690,5.466,0,0,0,0,1,0,
2,4362.56,3892.31,4224.62,4042.05,4006.15,3641.54,4384.62,4490.77,4814.36,4485.64,4480,4383.08,4326.15,3910.26,1655,1689,5.473,0,0,0,0,1,0,
3,4366.67,3896.41,4228.72,4038.97,4012.31,3634.36,4380.51,4488.21,4815.9,4476.41,4480.51,4395.9,4268.21,3923.59,1653,1690,5.481,0,0,0,0,1,0,
4,4366.67,3871.79,4224.62,4012.31,3980.51,3632.31,4372.82,4474.87,4813.85,4473.85,4497.44,4401.54,4251.79,3927.69,1655,1691,5.489,0,0,0,0,1,0,
5,4369.74,3863.08,4228.72,4016.41,3973.33,3639.49,4377.44,4477.95,4814.87,4477.44,4498.97,4399.49,4294.36,3928.21,1654,1691,5.497,0,0,0,0,1,0,
6,4374.36,3871.28,4234.36,4032.82,3991.28,3646.15,4386.15,4493.85,4825.64,4474.87,4486.67,4399.49,4289.23,3941.03,1654,1692,5.504,0,0,0,0,1,0,
7,4364.1,3869.74,4221.54,4027.18,3985.64,3642.05,4385.13,4494.87,4832.82,4478.46,4481.54,4390.26,4273.33,3934.87,1654,1691,5.512,0,0,0,0,1,0,
8,4364.1,3868.21,4221.54,4038.46,3989.23,3643.08,4386.67,4493.33,4831.79,4488.72,4490.77,4393.85,4280.51,3920.51,1653,1692,5.52,0,0,0,0,1,0,
9,4374.87,3888.72,4234.87,4053.85,4007.18,3646.67,4387.69,4494.87,4828.21,4482.05,4491.79,4401.03,4282.05,3918.46,1654,1691,5.528,0,0,0,0,1,0,
10,4352.31,3890.77,4217.95,4019.49,3988.72,3635.9,4375.9,4481.54,4816.92,4468.21,4472.82,4377.95,4288.21,3901.54,1653,1692,5.536,0,0,0,0,1,0,
11,4340.51,3872.31,4205.13,3997.44,3976.41,3630.26,4372.82,4471.28,4811.28,4473.33,4465.13,4364.1,4309.23,3892.31,1654,1690,5.544,0,0,0,0,1,0,
12,4370.26,3865.64,4227.69,4022.05,3996.41,3642.56,4384.62,4477.95,4815.38,4479.49,4479.49,4389.74,4293.33,3912.82,1653,1690,5.552,0,0,0,0,1,0,
13,4371.28,3856.92,4231.28,4030.77,3999.49,3641.03,4383.59,4475.38,4813.33,4464.62,4473.33,4399.49,4269.74,3914.36,1655,1690,5.559,0,0,0,0,1,0,
14,4357.95,3870.77,4220.51,4029.23,3998.46,3639.49,4382.56,4476.41,4815.9,4458.46,4473.33,4395.38,4271.28,3915.38,1654,1689,5.567,0,0,0,0,1,0,
15,4376.41,3901.54,4231.28,4045.13,4001.03,3654.87,4388.72,4488.72,4827.69,4473.33,4502.05,4409.23,4273.33,3936.41,1655,1689,5.575,0,0,0,0,1,0,
16,4382.05,3892.31,4238.97,4043.08,3985.64,3651.79,4386.67,4494.36,4830.26,4486.15,4498.97,4407.69,4295.9,3931.28,1654,1688,5.583,0,0,0,0,1,0,
17,4370.26,3865.64,4231.79,4031.28,3993.33,3643.59,4383.59,4493.85,4829.23,4492.82,4475.38,4395.38,4333.85,3914.87,1654,1690,5.591,0,0,0,0,1,0,
18,4372.82,3877.95,4229.74,4036.41,4018.97,3647.18,4384.1,4496.41,4832.31,4492.82,4488.21,4398.97,4331.79,3927.69,1655,1691,5.598,0,0,0,0,1,0,
19,4369.74,3892.31,4225.64,4028.72,3992.82,3641.03,4380,4490.77,4827.69,4480.51,4495.9,4397.95,4298.97,3937.44,1654,1692,5.606,0,0,0,0,1,0,
20,4363.08,3876.92,4216.92,4024.1,3963.59,3632.31,4379.49,4483.59,4824.1,4471.79,4473.85,4387.18,4281.54,3922.05,1655,1692,5.614,0,0,0,0,1,0,
21,4369.74,3874.87,4216.92,4038.97,3986.15,3636.92,4380.51,4486.15,4827.18,4476.92,4485.64,4388.21,4272.82,3909.74,1654,1692,5.622,0,0,0,0,1,0,
22,4364.62,3880,4217.44,4027.69,3998.46,3635.38,4375.9,4480.51,4819.49,4474.87,4492.82,4383.59,4272.31,3906.67,1654,1692,5.629,0,0,0,0,1,0,
23,4353.85,3874.36,4214.36,4010.26,3987.18,3633.85,4376.92,4470.77,4810.26,4467.18,4460,4371.28,4283.59,3906.15,1654,1692,5.638,0,0,0,0,1,0,
24,4357.95,3887.18,4215.9,4029.74,4010.77,3649.23,4390.77,4482.05,4822.05,4471.79,4470.26,4385.64,4282.56,3913.33,1654,1691,5.647,0,0,0,0,1,0,
25,4359.49,3896.41,4215.9,4050.26,4034.87,3655.38,4396.92,4494.87,4832.31,4478.46,4491.28,4394.87,4276.92,3909.74,1655,1692,5.652,0,0,0,0,1,0,
26,4350.26,3881.54,4212.82,4043.08,3998.97,3650.77,4390.26,4489.74,4827.69,4474.36,4460,4373.33,4289.74,3891.79,1655,1690,5.661,0,0,0,0,1,0,
27,4351.28,3874.87,4215.9,4036.92,3977.44,3652.31,4386.67,4488.21,4823.08,4471.79,4464.62,4373.33,4288.72,3897.95,1655,1690,5.669,0,0,0,0,1,0,
28,4356.92,3880.51,4216.92,4025.13,3998.97,3643.08,4383.59,4484.62,4820.51,4473.33,4507.18,4393.33,4264.62,3914.87,1654,1690,5.677,0,0,0,0,1,0,
29,4356.92,3877.44,4215.9,4012.82,4005.13,3635.9,4378.97,4479.49,4821.54,4472.31,4493.85,4389.74,4278.46,3910.26,1655,1691,5.683,0,0,0,0,1,0,
30,4363.08,3882.05,4224.1,4037.44,4009.23,3647.69,4383.59,4490.26,4830.77,4481.03,4475.9,4386.67,4307.69,3913.33,1656,1690,5.692,0,0,0,0,1,0,
31,4371.28,3895.9,4234.87,4052.31,4014.87,3654.87,4388.21,4495.38,4834.36,4491.79,4493.33,4400,4297.95,3928.72,1654,1692,5.7,0,0,0,0,1,0,
32,4373.85,3893.85,4234.36,4040.51,4008.21,3646.15,4385.13,4480.51,4827.18,4489.74,4496.41,4397.44,4291.28,3930.26,1656,1692,5.708,0,0,0,0,1,0,
33,4382.05,3898.97,4231.79,4053.85,4021.54,3649.74,4390.77,4484.1,4829.74,4493.33,4494.36,4393.85,4322.56,3930.77,1654,1692,5.716,0,0,0,0,1,0,
34,4383.59,3914.87,4236.92,4065.13,4023.08,3655.9,4394.36,4494.87,4834.36,4496.92,4495.9,4402.05,4325.13,3931.28,1655,1693,5.723,0,0,0,0,1,0,
35,4366.67,3909.23,4230.77,4038.46,3994.87,3641.54,4383.08,4484.62,4828.21,4484.62,4485.13,4394.87,4285.64,3924.1,1655,1691,5.731,0,0,0,0,1,0,
36,4362.56,3883.08,4222.05,4026.67,4000.51,3638.97,4381.54,4483.08,4826.67,4473.85,4488.72,4391.28,4271.28,3924.62,1655,1692,5.739,0,0,0,0,1,0,
37,4367.69,3870.26,4226.15,4046.67,4016.92,3651.79,4388.21,4492.82,4831.79,4471.79,4492.82,4396.41,4284.62,3920.51,1655,1692,5.747,0,0,0,0,1,0,
38,4357.95,3889.74,4225.13,4042.05,4000,3654.36,4386.67,4489.23,4828.72,4478.97,4477.44,4389.74,4287.69,3907.69,1655,1691,5.755,0,0,0,0,1,0,
39,4352.31,3898.46,4217.95,4026.15,4002.05,3649.74,4385.13,4484.62,4823.59,4493.33,4483.08,4387.69,4288.72,3912.82,1655,1690,5.762,0,0,0,0,1,0,
40,4358.46,3876.41,4217.44,4043.59,4022.05,3649.23,4389.74,4490.26,4828.21,4492.31,4494.87,4392.31,4305.64,3917.44,1655,1691,5.77,0,0,0,0,1,0,
41,4354.87,3877.44,4219.49,4045.64,4001.54,3645.64,4389.74,4488.72,4830.77,4475.38,4481.03,4384.1,4308.21,3904.1,1655,1690,5.778,0,0,0,0,1,0,
42,4357.44,3898.46,4224.1,4018.46,3980,3647.69,4389.74,4492.31,4834.87,4476.92,4490.77,4387.18,4289.23,3913.85,1654,1691,5.788,0,0,0,0,1,0,
43,4377.95,3894.87,4236.92,4029.23,3998.46,3652.31,4390.77,4504.1,4844.62,4501.03,4513.33,4408.72,4294.87,3936.41,1656,1690,5.794,0,0,0,0,1,0,
44,4378.97,3888.72,4235.38,4055.9,4015.9,3644.1,4384.62,4498.97,4843.08,4515.9,4501.54,4406.67,4306.67,3931.79,1653,1691,5.801,0,0,0,0,1,0,
45,4366.15,3896.41,4227.69,4042.05,4004.1,3635.38,4380,4492.82,4836.92,4504.1,4491.28,4397.95,4283.08,3926.67,1654,1692,5.809,0,0,0,0,1,0,
46,4374.36,3904.1,4241.03,4030.26,4001.54,3644.62,4390.26,4501.54,4836.41,4489.23,4512.31,4411.79,4275.9,3942.56,1654,1691,5.816,0,0,0,0,1,0,
47,4383.59,3894.36,4251.28,4049.74,4012.31,3656.41,4400,4502.56,4833.33,4495.38,4517.44,4418.97,4304.62,3951.79,1653,1693,5.825,0,0,0,0,1,0,
48,4368.21,3869.74,4233.85,4058.97,3995.9,3647.18,4389.74,4484.62,4826.15,4488.72,4486.15,4397.44,4307.69,3932.31,1654,1692,5.832,0,0,0,0,1,0,
49,4356.41,3875.9,4218.46,4036.92,3984.1,3640.51,4382.05,4476.41,4824.62,4469.23,4466.67,4379.49,4307.69,3913.85,1653,1693,5.841,0,0,0,0,1,0,
50,4362.56,3896.41,4227.69,4016.41,4002.56,3650.77,4387.69,4478.46,4824.62,4475.9,4480.51,4386.67,4304.1,3915.38,1654,1692,5.849,0,0,0,0,1,0,
51,4359.49,3890.77,4225.64,4027.69,4014.87,3647.18,4383.59,4479.49,4826.15,4492.31,4495.9,4392.82,4280.51,3925.64,1654,1691,5.856,0,0,0,0,1,0,
52,4356.41,3880.51,4214.36,4047.18,4017.95,3635.38,4382.05,4487.69,4831.79,4493.85,4494.87,4390.26,4284.62,3929.23,1655,1689,5.863,0,0,0,0,1,0,
53,4359.49,3896.92,4220,4040.51,4009.74,3639.49,4388.21,4492.31,4831.28,4492.82,4486.67,4388.21,4300.51,3916.92,1653,1690,5.871,0,0,0,0,1,0,
54,4358.46,3905.64,4223.59,4035.9,3992.31,3638.46,4380.51,4488.21,4827.69,4489.74,4485.64,4386.67,4282.56,3908.21,1656,1690,5.879,0,0,0,0,1,0,
55,4360,3873.85,4219.49,4051.28,3994.36,3632.82,4372.31,4488.72,4831.28,4485.13,4491.79,4389.74,4286.15,3914.87,1653,1690,5.887,0,0,0,0,1,0,
56,4355.38,3851.79,4220,4046.15,4010.26,3643.59,4381.54,4490.77,4827.69,4485.64,4489.74,4391.28,4306.15,3912.82,1654,1691,5.896,0,0,0,0,1,0,
57,4341.54,3871.79,4218.97,4011.79,3995.9,3647.18,4387.18,4478.97,4814.36,4479.49,4469.23,4378.97,4281.03,3896.92,1654,1691,5.902,0,0,0,0,1,0,
58,4338.46,3888.72,4211.28,4002.05,3974.36,3634.87,4381.03,4469.74,4815.38,4467.69,4461.03,4369.23,4276.92,3896.41,1653,1693,5.911,0,0,0,0,1,0,
59,4353.33,3888.72,4214.87,4032.82,3990.26,3633.33,4381.54,4482.05,4828.21,4478.46,4481.54,4385.64,4309.74,3916.41,1654,1692,5.918,0,0,0,0,1,0,
60,4357.95,3894.36,4220.51,4053.33,4006.67,3638.97,4384.1,4488.21,4830.26,4491.79,4497.44,4403.59,4279.49,3927.69,1654,1692,5.927,0,0,0,0,1,0,
61,4356.41,3874.36,4223.59,4043.59,3991.79,3638.97,4381.03,4475.38,4821.54,4480,4487.69,4397.44,4240.51,3928.21,1655,1692,5.934,0,0,0,0,1,0,
62,4363.59,3862.05,4228.21,4040,3996.41,3637.44,4379.49,4476.41,4822.05,4478.97,4484.62,4389.23,4295.9,3925.13,1655,1692,5.942,0,0,0,0,1,0,
63,4369.74,3898.46,4233.33,4050.26,4018.97,3637.95,4381.54,4493.85,4837.95,4493.85,4503.59,4406.67,4342.05,3925.64,1656,1690,5.949,0,0,0,0,1,0,
64,4365.13,3909.74,4232.82,4049.74,4008.72,3636.92,4382.56,4497.44,4842.56,4490.77,4508.72,4416.41,4288.72,3933.33,1656,1689,5.957,0,0,0,0,1,0,
65,4355.38,3889.23,4218.97,4030.26,3995.38,3638.46,4382.56,4491.28,4833.85,4492.82,4495.38,4398.46,4268.72,3928.72,1656,1688,5.966,0,0,0,0,1,0,
66,4360,3886.15,4213.85,4028.72,4008.21,3639.49,4384.62,4492.31,4829.23,4509.74,4494.87,4391.28,4315.38,3916.41,1655,1688,5.973,0,0,0,0,1,0,
67,4367.69,3884.62,4220.51,4049.74,3991.79,3635.38,4378.97,4481.54,4818.97,4488.21,4497.44,4401.54,4301.03,3919.49,1656,1689,5.981,0,0,0,0,1,0,
68,4353.85,3873.85,4216.41,4047.18,3966.15,3631.28,4371.79,4464.62,4805.13,4454.87,4484.62,4391.28,4262.05,3917.44,1655,1688,5.988,0,0,0,0,1,0,
69,4350.77,3877.44,4213.33,4033.33,3995.38,3635.38,4382.05,4475.9,4817.44,4478.97,4490.26,4386.15,4283.08,3913.85,1654,1691,5.996,0,0,0,0,1,0,
70,4367.18,3891.28,4220,4038.46,4013.85,3638.46,4393.33,4493.33,4832.82,4501.54,4504.62,4401.03,4311.79,3925.13,1656,1690,6.004,0,0,0,0,1,0,
71,4365.64,3889.74,4216.92,4035.38,3989.74,3636.92,4384.62,4482.05,4825.13,4478.46,4494.36,4398.97,4293.85,3932.31,1653,1691,6.013,0,0,0,0,1,0,
72,4350.77,3875.38,4210.26,4030.77,3993.33,3636.41,4377.44,4471.79,4822.05,4472.82,4483.08,4390.26,4280.51,3925.13,1654,1693,6.021,0,0,0,0,1,0,
73,4356.41,3881.03,4215.38,4047.69,4011.28,3637.95,4385.64,4486.15,4831.28,4498.97,4490.26,4395.9,4305.13,3923.59,1654,1693,6.028,0,0,0,0,1,0,
74,4367.18,3896.41,4218.46,4038.97,3994.36,3639.49,4389.74,4494.36,4832.82,4500,4500,4397.95,4328.72,3929.74,1654,1693,6.036,0,0,0,0,1,0,
75,4362.05,3893.33,4214.87,4018.97,3989.23,3636.92,4382.05,4488.72,4829.23,4487.18,4503.08,4393.85,4305.64,3925.64,1654,1692,6.043,0,0,0,0,1,0,
76,4358.97,3888.21,4217.44,4041.54,4006.67,3633.33,4378.97,4487.69,4826.67,4492.31,4509.74,4403.08,4244.1,3927.18,1653,1692,6.051,0,0,0,0,1,0,
77,4360.51,3880,4218.46,4049.23,3997.95,3633.85,4384.1,4489.74,4824.62,4488.72,4506.15,4404.62,4251.28,3932.31,1653,1691,6.059,0,0,0,0,1,0,
78,4354.36,3872.31,4206.15,4024.1,3991.79,3635.9,4384.62,4489.23,4824.62,4474.87,4490.77,4383.59,4330.26,3919.49,1655,1690,6.068,0,0,0,0,1,0,
79,4346.67,3875.9,4198.46,4017.95,4005.13,3635.38,4380.51,4486.15,4820,4475.38,4481.03,4376.41,4317.95,3907.69,1655,1689,6.075,0,0,0,0,1,0,
80,4352.31,3872.31,4203.59,4033.85,3997.95,3635.38,4381.03,4475.9,4811.79,4476.92,4483.08,4386.15,4244.1,3921.03,1655,1690,6.082,0,0,0,0,1,0,
81,4355.9,3872.31,4203.59,4033.33,3983.59,3638.46,4383.08,4472.82,4809.74,4472.31,4482.56,4386.15,4254.36,3925.13,1654,1690,6.091,0,0,0,0,1,0,
82,4347.69,3894.36,4202.05,4016.92,4000,3636.41,4381.54,4482.56,4815.9,4469.74,4473.33,4378.46,4293.33,3914.36,1656,1690,6.099,0,0,0,0,1,0,
83,4352.82,3895.38,4215.9,4024.1,4014.36,3636.41,4382.05,4485.13,4818.97,4467.18,4476.92,4382.05,4268.21,3924.62,1655,1691,6.107,0,0,0,0,1,0,
84,4358.97,3883.59,4216.92,4047.18,3993.33,3637.95,4381.03,4473.33,4809.74,4462.05,4483.08,4386.67,4250.26,3926.67,1656,1692,6.115,0,0,0,0,1,0,
85,4344.1,3887.69,4197.95,4042.56,3970.26,3626.67,4370.77,4460.51,4802.56,4457.44,4475.9,4377.95,4274.87,3898.46,1655,1692,6.121,0,0,0,0,1,0,
86,4338.97,3861.03,4202.56,4025.13,3982.05,3618.46,4363.59,4458.46,4807.18,4458.97,4467.69,4368.72,4300.51,3892.82,1655,1693,6.129,0,0,0,0,1,0,
87,4355.9,3845.13,4220,4034.87,4006.67,3630.26,4373.33,4467.69,4812.82,4472.31,4474.87,4375.38,4302.05,3912.82,1655,1690,6.138,0,0,0,0,1,0,
88,4355.38,3897.95,4208.21,4048.21,4004.1,3641.03,4383.59,4472.82,4812.31,4477.95,4485.64,4382.56,4280.51,3914.36,1654,1690,6.146,0,0,0,0,1,0,
89,4349.23,3921.03,4200,4034.36,4000,3637.95,4382.05,4477.44,4823.08,4473.85,4497.44,4386.67,4283.08,3914.87,1655,1689,6.154,0,0,0,0,1,0,
90,4357.95,3883.08,4217.44,4023.08,4005.64,3635.38,4378.46,4479.49,4827.69,4476.41,4496.41,4390.77,4284.62,3924.62,1653,1689,6.161,0,0,0,0,1,0,
91,4356.41,3878.97,4220,4036.41,4002.56,3635.9,4378.97,4475.9,4812.82,4473.85,4475.38,4387.18,4258.46,3920.51,1655,1690,6.169,0,0,0,0,1,0,
92,4351.28,3890.77,4209.23,4054.87,4007.18,3637.44,4385.13,4483.59,4818.97,4471.28,4478.97,4381.54,4281.54,3914.36,1654,1689,6.176,0,0,0,0,1,0,
93,4357.95,3884.1,4213.85,4049.23,4021.54,3640,4388.21,4494.36,4833.85,4478.97,4496.41,4388.21,4320.51,3924.62,1654,1691,6.185,0,0,0,0,1,0,
94,4361.03,3890.77,4217.95,4031.28,4015.9,3638.46,4381.03,4483.59,4822.56,4480,4485.13,4391.79,4297.44,3932.82,1654,1691,6.193,0,0,0,0,1,0,
95,4347.18,3891.79,4209.74,4030.26,3984.1,3633.33,4371.28,4468.72,4805.13,4472.82,4468.21,4378.46,4269.74,3918.97,1655,1693,6.201,0,0,0,0,1,0,
96,4342.05,3880.51,4210.26,4035.38,3963.08,3635.38,4372.82,4473.33,4811.79,4472.31,4476.41,4372.82,4286.15,3904.62,1654,1692,6.208,0,0,0,0,1,0,
97,4352.31,3893.85,4215.9,4039.49,3987.18,3638.46,4378.46,4478.97,4824.62,4480.51,4481.03,4380,4299.49,3907.69,1655,1693,6.216,0,0,0,0,1,0,
98,4358.97,3896.92,4217.44,4041.03,4014.87,3627.69,4374.87,4473.85,4823.08,4481.03,4476.92,4383.08,4288.21,3913.85,1655,1691,6.223,0,0,0,0,1,0,
99,4354.87,3862.56,4217.44,4037.44,3991.79,3617.44,4367.69,4469.74,4811.79,4461.03,4481.03,4384.1,4270.26,3910.77,1655,1693,6.232,0,0,0,0,1,0,
100,4351.28,3866.15,4217.95,4038.46,3976.92,3628.21,4372.31,4469.74,4807.18,4456.92,4480,4385.64,4262.05,3909.74,1656,1691,6.24,0,0,0,0,1,0,
101,4353.85,3909.23,4217.44,4043.59,4007.69,3638.97,4380.51,4478.97,4821.03,4481.54,4473.85,4383.08,4286.15,3912.31,1655,1689,6.247,0,0,0,0,1,0,
102,4351.79,3917.95,4216.41,4046.15,4021.03,3632.82,4379.49,4489.23,4828.21,4478.46,4476.41,4381.03,4310.26,3912.82,1656,1689,6.255,0,0,0,0,1,0,
103,4351.28,3870.77,4217.44,4046.15,3998.97,3633.33,4381.54,4492.31,4820,4458.97,4478.46,4384.62,4286.67,3911.79,1656,1687,6.263,0,0,0,0,1,0,
104,4349.23,3854.36,4216.92,4035.9,3987.18,3642.05,4390.77,4491.79,4814.36,4468.21,4472.31,4382.05,4256.41,3904.62,1655,1688,6.271,0,0,0,0,1,0,
105,4343.08,3891.79,4215.38,4032.82,4003.59,3640,4390.26,4491.28,4815.9,4482.05,4477.44,4379.49,4275.38,3902.05,1655,1689,6.279,0,0,0,0,1,0,
106,4350.77,3890.26,4218.97,4048.21,4007.18,3634.87,4383.08,4488.21,4816.92,4477.44,4495.38,4390.26,4285.64,3917.44,1655,1690,6.287,0,0,0,0,1,0,
107,4361.54,3859.49,4222.56,4034.36,3975.9,3630.26,4375.38,4474.87,4807.69,4465.64,4499.49,4398.46,4237.44,3932.31,1654,1690,6.294,0,0,0,0,1,0,
108,4349.23,3867.69,4217.44,4008.72,3965.13,3620,4366.67,4462.56,4803.59,4454.87,4487.69,4390.26,4228.21,3923.59,1655,1693,6.302,0,0,0,0,1,0,
109,4335.9,3901.03,4210.26,4029.23,3994.36,3618.46,4365.64,4465.64,4807.69,4466.15,4479.49,4378.97,4291.79,3909.23,1655,1692,6.31,0,0,0,0,1,0,
110,4355.38,3896.92,4220.51,4056.92,3997.44,3629.23,4370.77,4472.31,4812.82,4483.08,4477.95,4384.1,4322.05,3911.79,1654,1694,6.318,0,0,0,0,1,0,
111,4368.72,3890.26,4232.82,4046.15,3989.23,3636.41,4374.87,4476.92,4818.97,4472.82,4472.82,4389.74,4303.59,3914.36,1655,1694,6.326,0,0,0,0,1,0,
112,4355.38,3906.67,4230.77,4032.31,4011.28,3636.92,4381.54,4487.18,4822.56,4473.33,4484.1,4392.31,4286.67,3914.36,1653,1693,6.333,0,0,0,0,1,0,
113,4358.46,3871.28,4239.49,4044.62,4006.15,3635.9,4385.64,4491.28,4817.44,4486.67,4504.1,4404.1,4271.28,3926.67,1654,1692,6.341,0,0,0,0,1,0,
114,4365.64,3838.97,4251.79,4046.67,3978.46,3634.87,4381.03,4480.51,4811.28,4464.62,4494.36,4400,4257.95,3926.15,1653,1690,6.349,0,0,0,0,1,0,
115,4343.59,3886.15,4231.79,4022.56,3990.26,3635.9,4380,4472.82,4809.74,4445.64,4467.69,4374.87,4265.64,3896.41,1654,1690,6.356,0,0,0,0,1,0,
116,4328.21,3923.08,4210.77,4013.33,4010.26,3637.44,4382.56,4474.36,4808.72,4465.13,4468.21,4365.64,4288.72,3886.15,1654,1687,6.365,0,0,0,0,1,0,
117,4340.51,3887.69,4223.08,4036.41,4005.13,3633.85,4376.41,4473.85,4810.26,4478.97,4473.85,4373.85,4294.36,3906.15,1654,1689,6.373,0,0,0,0,1,0,
118,4345.64,3875.38,4233.85,4043.59,3998.46,3627.18,4369.74,4473.85,4813.33,4472.82,4469.74,4376.92,4276.92,3908.72,1654,1688,6.38,0,0,0,0,1,0,
119,4345.13,3900,4229.74,4025.64,3996.92,3623.59,4370.26,4476.41,4812.82,4476.41,4482.56,4380.51,4273.85,3904.62,1655,1690,6.387,0,0,0,0,1,0,
120,4354.87,3886.67,4232.82,4025.64,3989.23,3622.05,4369.23,4474.36,4807.69,4479.49,4489.74,4386.15,4281.54,3920,1655,1690,6.395,0,0,0,0,1,0,
121,4355.9,3866.67,4235.38,4036.92,3985.13,3621.54,4364.62,4470.26,4802.56,4475.38,4476.41,4378.97,4278.97,3921.03,1655,1691,6.403,0,0,0,0,1,0,
122,4352.31,3882.56,4231.79,4047.18,3991.28,3622.05,4367.69,4471.79,4808.72,4483.59,4484.1,4380.51,4274.36,3909.23,1656,1691,6.411,0,0,0,0,1,0,
123,4358.46,3912.82,4237.95,4048.72,3997.44,3625.13,4376.41,4477.44,4818.46,4494.87,4500,4396.92,4282.05,3921.03,1655,1691,6.42,0,0,0,0,1,0,
124,4361.54,3911.28,4245.64,4034.36,3990.26,3622.56,4374.36,4476.92,4815.9,4493.33,4483.59,4395.9,4291.28,3927.69,1655,1692,6.426,0,0,0,0,1,0,
125,4353.33,3877.95,4237.95,4033.85,3982.05,3611.28,4365.64,4475.9,4811.79,4494.36,4470.26,4378.97,4292.82,3908.21,1654,1689,6.435,0,0,0,0,1,0,
126,4349.23,3888.21,4230.26,4051.28,4003.59,3604.62,4373.85,4486.15,4821.03,4505.64,4486.15,4381.54,4288.21,3911.79,1653,1691,6.442,0,0,0,0,1,0,
127,4356.92,3917.95,4233.33,4044.62,4013.33,3605.64,4379.49,4492.82,4825.13,4508.21,4496.92,4397.95,4279.49,3935.38,1654,1689,6.451,0,0,0,0,1,0,
128,4358.97,3900,4235.9,4029.23,3989.23,3605.64,4373.85,4491.79,4824.1,4506.67,4489.74,4394.87,4281.03,3927.18,1653,1690,6.458,0,0,0,0,1,0,
0,4348.72,3889.74,4230.77,4037.44,3990.77,3605.64,4376.41,4489.74,4824.62,4504.62,4470.77,4376.92,4290.26,3903.59,1654,1690,6.465,0,0,0,0,1,0,
1,4346.67,3913.33,4229.74,4048.72,4020.51,3606.15,4378.46,4482.56,4818.46,4494.87,4466.15,4372.82,4287.69,3903.08,1653,1690,6.473,0,0,0,0,1,0,
2,4360,3905.13,4233.85,4041.03,4015.38,3605.64,4372.31,4474.87,4812.82,4488.72,4495.9,4387.69,4282.05,3919.49,1653,1691,6.481,0,0,0,0,1,0,
3,4362.05,3885.13,4233.33,4035.9,3988.21,3606.15,4370.26,4473.85,4813.85,4491.28,4505.64,4392.82,4283.59,3928.21,1653,1692,6.49,0,0,0,0,1,0,
4,4357.95,3894.87,4235.9,4041.54,3993.33,3605.13,4369.74,4475.9,4814.36,4494.87,4477.44,4386.15,4283.59,3924.62,1654,1693,6.498,0,0,0,0,1,0,
