COUNTER,AF3,F7,F3, FC5, T7, P7, O1, O2,P8, T8, FC6, F4,F8, AF4,GYROX, GYROY, TIMESTAMP, FUNC_ID, FUNC_VALUE, MARKER, SYNC_SIGNAL,
120,4048.72,4173.85,4067.18,3836.41,4362.56,4153.85,4536.92,4507.69,4258.46,3889.23,4204.1,4587.69,4373.33,4582.56,1692,1706,0.097,0,0,0,0,
121,4049.74,4166.67,4067.69,3835.38,4366.67,4144.1,4540,4511.79,4260,3889.23,4205.13,4588.72,4372.82,4593.33,1691,1707,0.105,0,0,0,0,
122,4063.59,4176.41,4076.92,3844.1,4340.51,4143.59,4551.79,4531.28,4283.59,3905.64,4225.13,4603.59,4385.64,4603.08,1693,1706,0.113,0,0,0,0,
123,4066.15,4185.64,4077.44,3842.05,4338.46,4153.33,4556.41,4536.92,4288.72,3916.92,4236.41,4609.74,4393.85,4604.62,1692,1707,0.121,0,0,0,0,
124,4060.51,4177.44,4073.33,3837.44,4374.36,4155.38,4551.28,4522.56,4269.23,3911.28,4228.21,4600.51,4393.33,4599.49,1693,1708,0.128,0,0,0,0,
125,4057.95,4170.26,4071.28,3843.08,4380.51,4146.67,4548.72,4522.05,4268.21,3907.69,4220,4598.97,4390.77,4591.28,1692,1708,0.136,0,0,0,0,
126,4056.41,4175.38,4068.21,3847.69,4362.56,4150.26,4553.85,4533.85,4282.05,3913.33,4218.97,4600,4389.74,4588.72,1693,1709,0.144,0,0,0,0,
127,4050.26,4172.31,4063.08,3842.05,4362.56,4154.87,4553.33,4531.28,4275.9,3909.23,4213.33,4589.74,4384.1,4582.56,1692,1708,0.152,0,0,0,0,
128,4038.46,4164.62,4054.36,3835.9,4366.67,4138.97,4542.56,4516.41,4258.97,3895.38,4201.54,4573.85,4372.82,4567.18,1692,1709,0.16,0,0,0,0,
0,4034.36,4166.15,4050.77,3829.23,4354.36,4135.38,4536.92,4512.31,4256.41,3889.74,4196.41,4570.77,4370.26,4569.74,1692,1708,0.167,0,0,0,0,
1,4048.21,4167.69,4056.92,3828.72,4352.82,4152.31,4540,4518.97,4264.62,3894.87,4207.18,4580.51,4378.46,4586.15,1692,1709,0.175,0,0,0,0,
2,4061.03,4169.23,4065.64,3842.05,4371.28,4155.9,4544.1,4526.15,4272.31,3900.51,4217.95,4590.26,4384.1,4587.69,1692,1708,0.183,0,0,0,0,
3,4057.95,4174.87,4070.77,3846.67,4376.92,4148.21,4548.72,4536.92,4278.97,3905.64,4221.03,4599.49,4387.18,4587.69,1691,1711,0.191,0,0,0,0,
4,4051.28,4168.72,4074.87,3836.41,4364.62,4149.74,4554.36,4544.1,4282.56,3913.85,4216.41,4603.59,4385.64,4590.77,1693,1709,0.199,0,0,0,0,
5,4048.21,4153.33,4070.26,3830.77,4358.97,4152.82,4555.9,4540.51,4278.46,3909.23,4207.18,4595.38,4375.9,4577.95,1691,1709,0.207,0,0,0,0,
6,4044.1,4147.18,4056.92,3831.79,4366.15,4152.82,4554.87,4535.38,4269.23,3895.9,4201.03,4580,4367.18,4567.69,1693,1709,0.214,0,0,0,0,
7,4038.97,4150.77,4049.23,3826.15,4365.13,4154.36,4554.36,4528.21,4261.54,3890.26,4198.97,4573.33,4365.64,4569.23,1692,1709,0.222,0,0,0,0,
8,4036.92,4152.31,4054.36,3825.13,4351.79,4147.18,4553.33,4521.03,4259.49,3895.9,4205.64,4580.51,4373.85,4573.33,1692,1709,0.23,0,0,0,0,
9,4046.67,4156.41,4064.62,3833.85,4350.26,4147.18,4556.92,4522.56,4264.1,3908.21,4217.95,4590.77,4386.15,4584.62,1693,1709,0.238,0,0,0,0,
10,4054.36,4160,4063.59,3836.41,4364.62,4152.82,4552.82,4524.62,4264.62,3908.21,4220.51,4589.74,4386.15,4590.77,1694,1709,0.246,0,0,0,0,
11,4046.15,4154.36,4057.44,3833.33,4368.72,4141.54,4544.1,4523.59,4262.56,3899.49,4214.36,4583.59,4380,4584.1,1693,1709,0.253,0,0,0,0,
12,4043.08,4151.79,4065.64,3831.79,4357.95,4137.44,4549.23,4534.36,4272.31,3905.64,4216.92,4587.69,4384.1,4584.62,1693,1710,0.261,0,0,0,0,
13,4048.72,4155.9,4071.79,3834.87,4358.46,4148.72,4555.9,4540.51,4278.46,3914.36,4220,4594.36,4386.67,4590.26,1691,1711,0.269,0,0,0,0,
14,4040.51,4156.92,4058.97,3835.9,4369.23,4150.26,4550.77,4528.21,4266.67,3902.56,4209.23,4588.21,4373.85,4578.97,1692,1710,0.277,0,0,0,0,
15,4025.64,4148.21,4045.64,3827.69,4365.64,4153.33,4552.31,4523.59,4260.51,3888.21,4198.97,4572.82,4361.03,4565.64,1690,1710,0.285,0,0,0,0,
16,4023.59,4142.56,4047.18,3828.21,4356.41,4165.64,4566.67,4536.41,4273.33,3892.31,4194.87,4566.15,4355.9,4565.13,1690,1711,0.293,0,0,0,0,
17,4031.28,4147.18,4049.74,3832.82,4359.49,4158.97,4571.79,4548.21,4285.13,3902.56,4198.97,4574.36,4358.97,4568.21,1689,1710,0.3,0,0,0,0,
18,4033.85,4144.1,4051.79,3819.49,4364.1,4149.23,4569.23,4554.36,4288.72,3907.18,4211.28,4584.62,4372.31,4568.72,1691,1710,0.308,0,0,0,0,
19,4033.33,4143.59,4057.44,3816.92,4367.18,4162.56,4570.26,4554.36,4292.82,3916.92,4219.49,4588.21,4382.05,4576.92,1690,1708,0.316,0,0,0,0,
20,4042.56,4159.49,4061.54,3834.87,4368.21,4170.26,4570.26,4544.1,4290.77,3927.18,4218.97,4591.79,4385.64,4591.28,1692,1708,0.324,0,0,0,0,
21,4052.31,4163.08,4065.13,3836.41,4369.74,4167.69,4565.13,4537.95,4284.1,3921.54,4217.95,4599.49,4390.77,4598.46,1693,1707,0.333,0,0,0,0,
22,4051.79,4151.79,4067.69,3832.31,4379.49,4170.26,4557.95,4538.46,4280,3911.79,4222.05,4604.1,4392.82,4602.56,1694,1708,0.339,0,0,0,0,
23,4053.33,4159.49,4071.28,3846.67,4377.95,4160.51,4553.85,4528.72,4272.82,3909.74,4219.49,4601.03,4388.21,4604.1,1696,1707,0.347,0,0,0,0,
24,4058.97,4172.31,4074.87,3852.82,4360,4142.56,4552.82,4523.08,4269.74,3912.31,4218.97,4599.49,4390.26,4602.56,1694,1708,0.355,0,0,0,0,
25,4062.05,4169.23,4074.87,3844.62,4365.13,4145.64,4553.33,4532.82,4275.38,3916.41,4227.69,4610.26,4396.92,4611.79,1695,1710,0.363,0,0,0,0,
26,4067.18,4170.77,4076.41,3846.67,4387.69,4154.87,4555.38,4542.56,4283.59,3918.97,4238.46,4619.49,4401.03,4628.21,1695,1709,0.371,0,0,0,0,
27,4067.18,4174.87,4076.92,3852.82,4377.44,4144.62,4557.95,4538.97,4280,3911.79,4233.33,4610.26,4403.08,4626.15,1695,1712,0.379,0,0,0,0,
28,4057.95,4169.74,4069.23,3850.26,4356.41,4139.49,4554.87,4528.21,4268.21,3908.72,4220.51,4596.41,4396.92,4612.31,1694,1711,0.386,0,0,0,0,
29,4056.92,4168.21,4065.13,3844.1,4370.26,4152.31,4554.36,4524.62,4270.77,3921.54,4222.05,4599.49,4394.36,4611.28,1694,1711,0.394,0,0,0,0,
30,4061.03,4171.28,4069.23,3845.64,4390.77,4156.92,4556.41,4527.18,4278.97,3927.18,4226.67,4603.59,4397.95,4610.26,1693,1710,0.403,0,0,0,0,
31,4053.85,4172.31,4064.62,3850.77,4383.08,4152.31,4555.9,4527.18,4273.33,3918.46,4221.03,4593.33,4396.92,4605.13,1692,1711,0.41,0,0,0,0,
32,4043.08,4168.72,4053.33,3842.05,4363.08,4153.33,4554.36,4521.03,4260.51,3907.69,4213.85,4582.56,4385.64,4597.95,1692,1709,0.418,0,0,0,0,
33,4042.05,4165.64,4052.82,3835.9,4363.59,4155.38,4546.67,4517.95,4258.46,3905.64,4212.82,4582.05,4376.92,4586.67,1691,1710,0.426,0,0,0,0,
34,4047.69,4167.18,4061.03,3843.59,4374.36,4153.33,4542.05,4521.03,4263.59,3909.74,4214.87,4586.67,4381.54,4589.23,1693,1708,0.433,0,0,0,0,
35,4051.79,4169.23,4061.54,3845.13,4371.28,4154.87,4549.23,4525.13,4266.67,3912.82,4217.95,4587.69,4391.79,4609.74,1691,1709,0.441,0,0,0,0,
36,4051.28,4169.23,4058.46,3843.08,4373.85,4152.82,4549.23,4520.51,4266.15,3910.26,4222.56,4587.18,4395.38,4615.38,1692,1710,0.449,0,0,0,0,
37,4052.31,4169.74,4062.56,3848.72,4381.03,4142.05,4538.97,4514.36,4260.51,3907.18,4222.05,4588.72,4395.9,4602.56,1691,1709,0.457,0,0,0,0,
38,4051.28,4169.23,4067.69,3848.21,4376.92,4140.51,4540.51,4517.95,4260,3911.79,4217.44,4588.72,4396.41,4598.46,1691,1710,0.465,0,0,0,0,
39,4052.31,4167.18,4067.69,3844.1,4376.92,4152.31,4549.23,4516.41,4261.54,3912.31,4213.85,4588.21,4394.36,4604.1,1691,1709,0.472,0,0,0,0,
40,4060.51,4170.77,4065.64,3848.21,4384.62,4154.36,4548.72,4506.67,4253.85,3902.05,4216.41,4587.18,4389.23,4603.59,1691,1711,0.48,0,0,0,0,
41,4058.97,4168.72,4062.05,3844.1,4377.95,4147.69,4545.64,4509.74,4246.67,3893.33,4213.85,4584.1,4381.54,4598.46,1692,1710,0.488,0,0,0,0,
42,4050.26,4164.1,4063.59,3840.51,4369.23,4150.26,4549.74,4520,4253.85,3894.87,4207.18,4583.08,4377.44,4598.46,1691,1711,0.496,0,0,0,0,
43,4053.33,4168.72,4067.69,3842.05,4375.9,4153.85,4554.87,4524.62,4266.67,3907.18,4213.33,4587.69,4381.54,4602.56,1692,1709,0.504,0,0,0,0,
44,4053.33,4162.05,4066.67,3831.79,4378.97,4147.69,4554.87,4523.59,4267.69,3909.23,4216.41,4588.72,4382.05,4599.49,1690,1711,0.512,0,0,0,0,
45,4049.74,4157.44,4065.13,3833.85,4380.51,4144.62,4550.77,4521.54,4262.05,3901.54,4209.74,4586.67,4376.92,4594.87,1691,1710,0.519,0,0,0,0,
46,4057.95,4178.97,4066.15,3854.36,4385.13,4151.79,4552.31,4530.77,4271.79,3908.21,4211.28,4592.31,4377.44,4598.97,1689,1710,0.527,0,0,0,0,
47,4064.1,4194.87,4069.74,3855.9,4377.44,4156.92,4558.97,4539.49,4280,3908.72,4212.31,4595.9,4376.92,4599.49,1690,1710,0.535,0,0,0,0,
48,4062.05,4186.15,4073.33,3844.62,4362.56,4145.64,4553.33,4527.69,4270.26,3894.36,4200.51,4588.21,4366.15,4583.59,1688,1709,0.543,0,0,0,0,
49,4066.15,4187.18,4074.87,3849.23,4365.13,4134.36,4542.56,4517.95,4260,3891.28,4196.92,4584.1,4357.44,4575.9,1688,1710,0.551,0,0,0,0,
50,4068.21,4200.51,4074.87,3853.33,4373.85,4144.1,4541.03,4518.46,4255.38,3889.23,4200.51,4585.64,4355.9,4586.15,1689,1709,0.558,0,0,0,0,
51,4069.74,4201.54,4076.41,3848.21,4374.87,4157.44,4544.1,4511.28,4248.72,3875.38,4197.95,4584.62,4357.44,4589.23,1689,1710,0.566,0,0,0,0,
52,4073.33,4198.97,4075.9,3848.21,4377.44,4147.18,4540,4503.08,4244.1,3882.56,4197.95,4585.13,4362.05,4583.59,1689,1709,0.574,0,0,0,0,
53,4067.18,4196.92,4072.31,3850.26,4382.56,4138.46,4536.92,4505.64,4246.67,3897.44,4198.46,4586.67,4367.18,4590.26,1690,1710,0.582,0,0,0,0,
54,4067.18,4198.97,4073.85,3853.85,4388.21,4154.36,4542.05,4517.44,4257.44,3897.95,4200,4587.18,4373.33,4596.92,1691,1709,0.59,0,0,0,0,
55,4074.36,4200,4073.33,3852.82,4378.97,4157.44,4543.59,4522.56,4265.13,3903.08,4208.21,4588.21,4375.9,4590.26,1690,1711,0.598,0,0,0,0,
56,4068.21,4188.21,4066.15,3843.08,4354.87,4134.36,4537.95,4511.28,4257.95,3901.03,4208.72,4587.18,4371.79,4587.69,1692,1710,0.605,0,0,0,0,
57,4069.23,4190.26,4068.72,3849.23,4364.62,4130.77,4537.95,4510.77,4256.41,3894.87,4207.69,4591.79,4375.38,4598.46,1691,1709,0.613,0,0,0,0,
58,4082.56,4205.64,4078.97,3866.15,4388.72,4149.23,4543.08,4527.69,4268.21,3903.08,4216.41,4603.59,4382.56,4603.59,1692,1711,0.621,0,0,0,0,
59,4077.44,4199.49,4077.95,3861.54,4373.33,4147.18,4544.1,4525.64,4265.64,3905.64,4217.44,4601.54,4377.44,4599.49,1692,1709,0.629,0,0,0,0,
60,4068.21,4187.69,4067.69,3845.13,4365.13,4136.92,4540,4512.31,4257.95,3894.36,4204.1,4589.23,4370.26,4599.49,1692,1711,0.637,0,0,0,0,
61,4071.79,4197.44,4065.64,3845.64,4384.62,4146.15,4539.49,4515.38,4261.54,3892.82,4201.03,4588.72,4372.31,4602.56,1693,1709,0.645,0,0,0,0,
62,4070.26,4205.13,4067.18,3852.82,4380,4158.97,4541.54,4522.05,4263.08,3898.46,4205.13,4592.31,4375.38,4595.9,1692,1709,0.652,0,0,0,0,
63,4064.1,4198.46,4062.56,3848.72,4366.15,4154.36,4540.51,4522.05,4262.05,3895.9,4203.59,4586.67,4373.33,4584.1,1692,1708,0.66,0,0,0,0,
64,4064.62,4197.95,4056.41,3843.59,4371.28,4140.51,4538.46,4517.44,4262.05,3892.82,4198.97,4581.03,4366.15,4589.74,1692,1708,0.668,0,0,0,0,
65,4070.77,4201.54,4060,3852.82,4378.46,4141.03,4538.46,4515.38,4254.87,3894.36,4200,4586.15,4368.21,4603.08,1691,1709,0.676,0,0,0,0,
66,4076.92,4201.54,4068.21,3861.54,4387.18,4152.31,4540.51,4520,4247.69,3895.38,4207.18,4591.79,4380,4605.13,1690,1710,0.684,0,0,0,0,
67,4075.38,4200,4067.69,3852.31,4388.72,4153.85,4540.51,4515.9,4247.69,3893.85,4209.23,4588.72,4377.95,4596.92,1689,1711,0.691,0,0,0,0,
68,4066.67,4198.97,4063.59,3846.67,4378.46,4145.64,4541.54,4509.74,4254.36,3896.41,4209.74,4588.21,4371.79,4597.44,1689,1711,0.699,0,0,0,0,
69,4066.67,4194.36,4065.13,3852.82,4365.64,4143.08,4542.05,4511.79,4256.92,3895.9,4207.18,4590.26,4374.87,4598.46,1689,1709,0.707,0,0,0,0,
70,4067.69,4192.31,4063.08,3849.23,4361.54,4141.54,4537.44,4507.69,4247.18,3881.03,4198.97,4585.13,4369.23,4587.69,1689,1709,0.715,0,0,0,0,
71,4066.15,4197.95,4063.59,3852.82,4367.69,4137.44,4535.9,4500,4241.03,3878.97,4198.97,4584.62,4367.18,4588.72,1690,1709,0.723,0,0,0,0,
72,4068.72,4201.03,4071.28,3862.56,4367.18,4138.46,4540,4507.69,4252.31,3895.38,4203.59,4591.28,4379.49,4604.1,1690,1709,0.731,0,0,0,0,
73,4070.26,4196.92,4075.9,3856.41,4365.13,4147.18,4541.54,4520,4262.56,3899.49,4203.08,4592.31,4380.51,4603.59,1692,1709,0.738,0,0,0,0,
74,4070.77,4199.49,4073.33,3852.82,4383.08,4150.77,4545.64,4524.1,4264.62,3895.38,4210.26,4591.79,4376.41,4600,1691,1709,0.746,0,0,0,0,
75,4068.21,4204.1,4072.82,3857.95,4390.77,4141.54,4549.23,4523.59,4265.64,3899.49,4216.92,4593.85,4381.54,4603.59,1693,1708,0.754,0,0,0,0,
76,4060,4195.9,4070.77,3848.72,4367.69,4142.05,4545.13,4518.97,4257.95,3896.92,4203.08,4588.72,4374.87,4590.26,1692,1708,0.762,0,0,0,0,
77,4054.87,4190.26,4060,3841.03,4359.49,4151.79,4541.54,4517.95,4249.23,3882.56,4193.85,4575.9,4357.44,4576.92,1693,1709,0.77,0,0,0,0,
78,4064.62,4197.95,4057.44,3855.9,4381.03,4145.64,4541.03,4519.49,4252.31,3882.56,4200,4573.85,4358.46,4592.31,1693,1708,0.777,0,0,0,0,
79,4076.92,4207.69,4066.67,3865.13,4387.18,4136.41,4539.49,4519.49,4260,3894.36,4201.54,4586.67,4371.28,4605.64,1692,1709,0.785,0,0,0,0,
80,4072.31,4203.59,4067.18,3854.36,4364.1,4141.54,4540.51,4518.97,4262.56,3895.38,4197.44,4588.21,4370.77,4594.36,1692,1708,0.793,0,0,0,0,
81,4059.49,4192.31,4056.41,3845.64,4350.26,4143.08,4540.51,4519.49,4262.05,3889.23,4196.41,4571.79,4363.59,4581.54,1691,1709,0.801,0,0,0,0,
82,4056.92,4193.33,4052.31,3845.64,4369.74,4140,4537.95,4520.51,4262.05,3891.28,4196.41,4568.21,4363.08,4580.51,1692,1708,0.809,0,0,0,0,
83,4063.08,4199.49,4061.03,3847.69,4385.64,4148.21,4545.64,4524.62,4263.59,3894.36,4195.9,4582.05,4367.18,4584.62,1691,1709,0.817,0,0,0,0,
84,4061.03,4200,4066.67,3854.36,4377.95,4152.31,4552.31,4526.15,4269.23,3892.82,4198.97,4586.67,4366.67,4587.69,1691,1709,0.824,0,0,0,0,
85,4059.49,4196.92,4067.18,3855.38,4367.18,4149.74,4549.23,4524.1,4273.85,3893.85,4202.56,4583.08,4366.67,4589.74,1690,1710,0.832,0,0,0,0,
86,4068.72,4202.05,4069.23,3845.64,4373.85,4153.85,4549.23,4530.77,4271.79,3896.41,4202.05,4585.13,4369.74,4598.97,1691,1710,0.84,0,0,0,0,
87,4070.77,4200.51,4068.21,3847.69,4379.49,4149.74,4545.13,4538.46,4267.18,3895.9,4200.51,4587.18,4367.69,4601.03,1690,1709,0.848,0,0,0,0,
88,4061.03,4188.72,4064.1,3855.38,4369.23,4137.44,4538.46,4535.38,4262.05,3893.33,4200.51,4583.08,4364.1,4588.21,1690,1710,0.856,0,0,0,0,
89,4060.51,4188.21,4065.13,3849.74,4361.03,4142.05,4547.18,4533.33,4262.05,3893.85,4198.97,4584.62,4366.67,4588.21,1691,1709,0.863,0,0,0,0,
90,4068.21,4195.38,4068.72,3846.15,4365.64,4156.92,4554.36,4540,4273.33,3896.92,4204.62,4591.79,4369.74,4601.03,1691,1710,0.871,0,0,0,0,
91,4068.21,4191.79,4069.74,3850.26,4371.28,4151.79,4546.67,4540.51,4275.9,3901.54,4212.82,4593.85,4367.69,4600.51,1691,1709,0.879,0,0,0,0,
92,4064.62,4187.69,4073.33,3849.74,4373.85,4146.67,4547.18,4535.9,4265.64,3906.67,4212.82,4595.38,4370.26,4595.38,1690,1710,0.887,0,0,0,0,
93,4070.77,4198.97,4077.95,3855.9,4384.62,4157.44,4556.92,4543.59,4270.26,3912.82,4212.31,4602.05,4380,4602.56,1692,1710,0.895,0,0,0,0,
94,4077.95,4202.56,4075.9,3862.05,4387.18,4157.95,4556.41,4552.82,4286.15,3912.82,4216.41,4605.13,4382.56,4604.62,1690,1710,0.903,0,0,0,0,
95,4072.82,4193.33,4073.33,3853.33,4372.31,4150.26,4551.28,4550.26,4289.23,3910.77,4218.46,4600,4377.44,4602.05,1690,1710,0.91,0,0,0,0,
96,4061.03,4187.69,4073.85,3845.13,4369.23,4152.31,4552.82,4548.72,4286.67,3911.79,4212.31,4592.31,4363.59,4598.97,1689,1710,0.918,0,0,0,0,
97,4055.38,4177.44,4067.69,3846.15,4380,4155.38,4555.38,4552.82,4283.59,3910.77,4203.59,4581.03,4351.79,4588.72,1690,1710,0.926,0,0,0,0,
98,4058.97,4167.18,4061.03,3850.77,4373.33,4151.79,4554.36,4551.28,4279.49,3911.79,4207.69,4581.54,4365.64,4591.28,1689,1709,0.934,0,0,0,0,
99,4064.1,4173.33,4062.56,3850.26,4355.9,4151.79,4552.31,4547.69,4284.1,3922.56,4226.67,4595.9,4393.33,4612.82,1689,1710,0.942,0,0,0,0,
100,4060,4169.74,4066.15,3836.41,4360,4153.33,4550.77,4547.18,4288.21,3926.67,4232.82,4601.54,4404.1,4624.1,1689,1709,0.949,0,0,0,0,
101,4057.95,4149.74,4068.21,3826.67,4378.46,4150.26,4551.79,4548.72,4288.21,3922.05,4231.79,4604.1,4412.31,4629.74,1689,1711,0.957,0,0,0,0,
102,4066.67,4139.49,4072.82,3833.85,4380.51,4152.31,4556.41,4554.36,4294.87,3932.82,4253.33,4618.46,4439.49,4652.82,1691,1710,0.965,0,0,0,0,
103,4063.08,4131.79,4073.33,3833.85,4364.1,4157.44,4558.46,4555.9,4297.44,3944.62,4266.15,4626.15,4447.18,4658.46,1689,1710,0.973,0,0,0,0,
104,4050.77,4123.59,4066.67,3827.69,4361.54,4152.31,4553.85,4552.31,4295.38,3939.49,4252.31,4619.49,4429.74,4640.51,1691,1711,0.981,0,0,0,0,
105,4051.28,4132.31,4065.13,3831.28,4377.44,4154.36,4553.85,4550.26,4295.38,3930.77,4243.59,4610.77,4425.64,4636.92,1690,1710,0.989,0,0,0,0,
106,4054.36,4135.9,4068.21,3834.36,4375.9,4164.62,4556.92,4545.64,4288.72,3929.23,4244.1,4608.21,4429.23,4639.49,1690,1711,1.003,0,0,0,0,
107,4049.74,4123.08,4067.18,3826.15,4355.9,4160,4555.38,4540,4281.54,3926.15,4238.46,4610.26,4422.56,4631.79,1690,1709,1.005,0,0,0,0,
108,4050.77,4118.46,4066.67,3818.97,4349.74,4149.23,4551.28,4538.46,4280.51,3914.87,4231.28,4607.69,4413.33,4627.69,1690,1709,1.012,0,0,0,0,
109,4051.28,4125.13,4067.69,3821.54,4355.9,4148.21,4550.26,4537.95,4278.97,3913.85,4232.82,4601.54,4411.28,4632.82,1691,1709,1.02,0,0,0,0,
110,4048.72,4131.79,4065.64,3837.44,4368.21,4151.79,4551.79,4538.46,4282.56,3928.21,4240,4605.64,4416.92,4635.9,1691,1709,1.028,0,0,0,0,
111,4057.95,4146.67,4066.67,3846.15,4388.21,4152.31,4552.31,4543.08,4289.74,3936.92,4249.23,4615.9,4428.21,4640.51,1692,1708,1.036,0,0,0,0,
112,4060,4151.79,4067.18,3836.41,4385.13,4151.79,4550.26,4538.46,4283.08,3929.74,4247.69,4611.28,4428.72,4638.97,1691,1709,1.043,0,0,0,0,
113,4050.26,4139.49,4060,3829.23,4362.56,4152.31,4548.72,4526.67,4271.28,3924.62,4239.49,4601.03,4423.59,4632.82,1693,1708,1.051,0,0,0,0,
114,4052.82,4140,4060,3830.26,4367.69,4155.9,4551.28,4528.72,4275.9,3927.18,4244.1,4602.56,4428.21,4634.36,1691,1709,1.059,0,0,0,0,
115,4064.1,4151.79,4067.18,3838.46,4388.21,4159.49,4554.87,4537.95,4286.15,3934.87,4253.85,4611.79,4433.85,4640.51,1691,1710,1.067,0,0,0,0,
116,4063.08,4152.31,4066.15,3845.13,4383.08,4157.95,4554.36,4538.97,4291.79,3944.62,4251.79,4614.87,4435.9,4644.62,1690,1710,1.075,0,0,0,0,
117,4056.92,4145.64,4063.08,3837.44,4365.64,4154.36,4550.77,4534.36,4293.33,3940.51,4246.15,4608.21,4437.95,4645.64,1690,1711,1.082,0,0,0,0,
118,4060.51,4150.26,4066.67,3836.41,4373.85,4154.36,4551.28,4537.95,4293.85,3937.95,4250.77,4610.26,4441.54,4646.67,1691,1710,1.09,0,0,0,0,
119,4068.21,4156.41,4067.69,3845.13,4389.74,4150.77,4551.28,4540,4296.92,3942.05,4255.9,4617.44,4443.08,4647.18,1690,1710,1.098,0,0,0,0,
120,4067.18,4151.79,4065.13,3841.03,4378.97,4148.21,4546.67,4534.87,4293.85,3936.41,4250.26,4612.31,4435.9,4644.1,1690,1709,1.106,0,0,0,0,
121,4061.03,4148.21,4069.74,3836.41,4362.05,4151.79,4549.74,4534.36,4291.28,3932.82,4246.15,4609.23,4427.18,4641.03,1690,1710,1.114,0,0,0,0,
122,4064.1,4154.36,4074.36,3845.64,4367.18,4145.64,4552.82,4538.97,4295.38,3940,4249.74,4615.9,4433.33,4640.51,1690,1710,1.122,0,0,0,0,
123,4074.36,4156.41,4073.33,3849.74,4378.97,4133.85,4548.72,4541.03,4293.33,3941.54,4251.79,4619.49,4442.56,4646.67,1690,1710,1.129,0,0,0,0,
124,4070.77,4144.62,4075.9,3844.1,4384.1,4144.62,4550.26,4542.05,4290.26,3941.03,4253.33,4620,4440.51,4652.82,1689,1709,1.138,0,0,0,0,
125,4053.85,4133.33,4074.87,3837.95,4381.54,4163.59,4557.95,4542.56,4288.72,3938.46,4249.74,4616.41,4430.26,4644.62,1690,1709,1.145,0,0,0,0,
126,4042.56,4127.69,4060.51,3829.74,4369.74,4157.95,4556.41,4537.44,4281.03,3923.08,4233.85,4603.08,4415.9,4623.59,1690,1710,1.153,0,0,0,0,
127,4051.79,4130.77,4057.44,3829.74,4366.15,4152.31,4554.36,4541.03,4284.1,3915.38,4232.82,4599.49,4416.41,4618.97,1689,1710,1.161,0,0,0,0,
128,4066.67,4138.97,4070.26,3835.9,4372.82,4160,4558.46,4549.74,4295.38,3927.18,4246.15,4607.69,4430.26,4635.38,1689,1710,1.169,0,0,0,0,
0,4056.92,4128.72,4066.67,3832.82,4365.64,4148.72,4555.9,4541.03,4285.64,3928.72,4240.51,4603.08,4422.56,4634.36,1690,1712,1.177,0,0,0,0,
1,4042.56,4118.97,4055.38,3829.74,4363.59,4137.44,4549.74,4530.77,4276.92,3923.08,4227.18,4595.38,4410.26,4620,1691,1710,1.184,0,0,0,0,
2,4052.82,4135.38,4058.46,3832.31,4380,4149.23,4550.77,4535.38,4288.21,3928.72,4232.31,4599.49,4423.08,4626.15,1691,1711,1.192,0,0,0,0,
3,4059.49,4142.56,4064.1,3834.36,4379.49,4153.33,4552.31,4538.46,4293.85,3932.31,4238.46,4604.1,4430.26,4632.82,1693,1710,1.2,0,0,0,0,
4,4048.21,4126.67,4061.03,3832.31,4368.72,4144.1,4551.28,4533.85,4287.69,3926.67,4232.31,4597.44,4415.38,4621.54,1692,1709,1.208,0,0,0,0,
5,4040.51,4122.05,4053.33,3827.18,4370.77,4148.21,4550.26,4534.87,4282.05,3923.59,4229.23,4590.26,4408.72,4613.85,1694,1709,1.215,0,0,0,0,
6,4043.59,4126.67,4052.82,3827.18,4366.67,4156.41,4554.36,4538.46,4286.15,3925.13,4230.26,4591.28,4412.31,4617.95,1694,1707,1.223,0,0,0,0,
7,4045.13,4122.05,4057.95,3830.26,4355.38,4153.33,4557.95,4538.97,4295.38,3926.15,4231.28,4591.79,4412.31,4618.97,1693,1709,1.231,0,0,0,0,
8,4044.62,4121.54,4056.92,3830.26,4358.46,4151.79,4556.41,4536.92,4291.28,3926.15,4230.26,4587.69,4411.28,4617.44,1693,1710,1.239,0,0,0,0,
9,4045.13,4127.18,4054.87,3832.31,4373.85,4152.82,4550.26,4532.82,4279.49,3925.13,4226.15,4586.67,4409.74,4613.85,1692,1712,1.247,0,0,0,0,
10,4045.13,4125.13,4055.9,3834.36,4381.03,4152.31,4549.23,4533.33,4281.03,3924.62,4228.72,4588.21,4410.77,4614.36,1692,1710,1.255,0,0,0,0,
11,4047.18,4123.59,4055.38,3832.31,4374.87,4149.74,4552.31,4532.82,4283.08,3924.1,4233.85,4589.74,4413.85,4623.59,1689,1712,1.262,0,0,0,0,
12,4048.72,4132.82,4055.38,3832.31,4368.21,4149.74,4552.31,4528.21,4279.49,3925.13,4230.77,4590.26,4412.82,4623.59,1690,1710,1.27,0,0,0,0,
13,4054.87,4140.51,4061.03,3835.38,4371.79,4154.87,4552.82,4533.33,4286.15,3927.18,4230.26,4593.33,4414.87,4619.49,1688,1711,1.279,0,0,0,0,
14,4060,4135.38,4061.54,3835.38,4369.23,4153.85,4552.31,4536.92,4285.13,3925.64,4234.36,4594.36,4416.41,4623.59,1690,1710,1.286,0,0,0,0,
15,4051.28,4126.15,4053.85,3833.33,4359.49,4149.23,4549.74,4525.64,4274.87,3923.08,4226.67,4589.74,4406.67,4621.54,1688,1710,1.294,0,0,0,0,
16,4040,4123.08,4048.21,3831.28,4368.72,4153.33,4551.28,4523.08,4282.05,3925.13,4214.36,4584.1,4397.95,4612.82,1690,1710,1.302,0,0,0,0,
17,4042.05,4126.67,4049.74,3828.21,4379.49,4156.41,4555.9,4538.46,4296.92,3926.67,4217.95,4585.13,4402.05,4614.36,1690,1708,1.309,0,0,0,0,
18,4048.21,4126.15,4052.82,3828.72,4372.82,4153.33,4553.85,4536.92,4291.79,3923.08,4228.21,4587.69,4405.13,4617.44,1690,1708,1.317,0,0,0,0,
19,4050.77,4127.18,4049.74,3832.31,4368.72,4152.31,4551.79,4528.72,4285.13,3923.08,4231.28,4587.18,4404.62,4615.38,1691,1706,1.325,0,0,0,0,
20,4053.33,4135.9,4049.23,3832.31,4374.36,4153.85,4554.87,4534.87,4297.44,3927.69,4231.28,4590.77,4410.26,4620.51,1691,1707,1.333,0,0,0,0,
21,4055.9,4139.49,4054.87,3832.31,4375.9,4155.38,4554.36,4532.31,4297.44,3926.15,4230.77,4597.44,4414.87,4623.59,1692,1708,1.341,0,0,0,0,
22,4058.97,4133.85,4059.49,3832.82,4367.18,4153.33,4550.26,4521.54,4281.54,3924.1,4230.77,4597.44,4413.33,4618.46,1692,1710,1.348,0,0,0,0,
23,4060.51,4133.85,4060,3828.21,4358.97,4145.13,4550.26,4525.64,4282.05,3926.67,4230.26,4594.87,4412.82,4614.87,1692,1710,1.357,0,0,0,0,
24,4058.97,4137.44,4060,3833.33,4363.08,4144.62,4552.31,4538.46,4296.41,3928.72,4229.23,4598.97,4413.85,4617.44,1691,1711,1.365,0,0,0,0,
25,4062.56,4136.41,4060,3843.59,4375.9,4152.82,4553.33,4538.46,4300,3927.69,4234.36,4602.05,4414.87,4621.03,1693,1711,1.372,0,0,0,0,
26,4067.18,4135.38,4056.92,3841.03,4378.97,4148.72,4550.77,4527.69,4288.21,3920.51,4235.9,4596.92,4410.77,4621.54,1692,1710,1.38,0,0,0,0,
27,4062.05,4135.38,4050.77,3830.77,4367.69,4144.62,4549.23,4525.13,4277.44,3907.69,4222.56,4590.77,4398.97,4616.92,1691,1711,1.388,0,0,0,0,
28,4057.95,4131.28,4049.74,3829.23,4357.44,4152.82,4551.79,4535.9,4283.08,3906.15,4216.92,4593.85,4394.87,4613.33,1691,1709,1.395,0,0,0,0,
29,4061.03,4129.23,4056.41,3830.26,4355.9,4149.74,4553.85,4541.03,4296.92,3922.56,4230.26,4600,4406.15,4620,1690,1710,1.403,0,0,0,0,
30,4064.1,4134.87,4061.03,3831.28,4367.69,4141.03,4551.79,4536.92,4294.87,3927.69,4236.92,4602.05,4413.33,4626.15,1691,1708,1.411,0,0,0,0,
31,4061.54,4137.44,4056.92,3833.33,4376.41,4148.21,4552.82,4535.38,4280,3910.77,4227.69,4597.95,4404.62,4621.03,1689,1710,1.419,0,0,0,0,
32,4062.56,4133.33,4056.41,3831.28,4365.64,4155.38,4556.41,4537.44,4282.05,3911.28,4225.64,4594.87,4402.56,4617.44,1690,1709,1.427,0,0,0,0,
33,4069.74,4136.92,4064.62,3837.95,4363.08,4152.82,4557.95,4541.03,4295.38,3929.74,4234.87,4604.62,4414.87,4626.15,1689,1710,1.434,0,0,0,0,
34,4064.62,4140.51,4061.03,3834.87,4367.18,4152.31,4556.41,4538.97,4289.23,3922.05,4233.85,4602.05,4413.85,4626.67,1690,1710,1.442,0,0,0,0,
35,4051.28,4132.31,4051.28,3817.95,4364.62,4153.33,4552.82,4524.62,4271.28,3900,4225.13,4586.15,4400,4613.85,1689,1710,1.45,0,0,0,0,
36,4054.87,4137.95,4054.87,3823.08,4371.28,4154.87,4552.82,4518.46,4276.41,3910.26,4228.21,4591.79,4404.62,4617.95,1691,1711,1.458,0,0,0,0,
37,4067.69,4154.36,4061.54,3841.03,4378.97,4151.79,4552.31,4529.74,4293.33,3929.74,4238.46,4605.13,4417.95,4633.85,1690,1710,1.466,0,0,0,0,
38,4065.13,4149.74,4057.44,3836.41,4366.15,4141.54,4546.15,4529.74,4288.21,3921.03,4230.26,4592.31,4409.74,4629.74,1692,1711,1.474,0,0,0,0,
39,4055.9,4139.49,4053.33,3829.74,4356.41,4143.08,4546.15,4522.56,4275.38,3903.08,4220,4584.1,4396.41,4615.9,1693,1711,1.481,0,0,0,0,
40,4062.05,4148.21,4058.46,3840.51,4372.82,4155.38,4552.82,4532.82,4283.59,3909.23,4228.21,4599.49,4402.56,4621.03,1692,1713,1.489,0,0,0,0,
41,4073.85,4156.41,4064.1,3842.56,4388.72,4155.38,4557.44,4543.08,4297.95,3926.15,4235.38,4606.67,4412.82,4632.31,1693,1711,1.497,0,0,0,0,
42,4071.79,4152.82,4066.67,3833.33,4376.92,4153.33,4559.49,4540,4296.92,3927.69,4231.79,4603.59,4413.85,4629.74,1692,1711,1.505,0,0,0,0,
43,4060.51,4147.18,4063.08,3830.26,4355.38,4162.05,4561.03,4537.44,4291.28,3921.54,4229.74,4600.51,4407.69,4621.03,1692,1710,1.513,0,0,0,0,
44,4057.95,4144.62,4056.41,3831.79,4366.15,4161.03,4555.9,4540,4295.38,3923.59,4231.28,4595.9,4400,4615.9,1691,1709,1.52,0,0,0,0,
45,4060.51,4142.56,4056.41,3831.79,4381.03,4149.74,4551.28,4538.97,4298.97,3926.67,4232.31,4595.9,4402.05,4617.95,1691,1709,1.528,0,0,0,0,
46,4061.03,4138.97,4060.51,3828.72,4363.08,4148.21,4554.36,4538.46,4296.41,3927.18,4233.85,4601.03,4411.79,4627.69,1690,1709,1.536,0,0,0,0,
47,4062.56,4142.56,4058.97,3830.77,4354.87,4152.31,4554.36,4538.97,4293.85,3928.21,4234.87,4604.1,4412.31,4632.82,1690,1709,1.544,0,0,0,0,
48,4064.62,4151.79,4060,3836.92,4375.38,4152.82,4551.79,4538.97,4293.33,3926.15,4234.36,4606.67,4409.23,4630.77,1689,1711,1.552,0,0,0,0,
49,4066.67,4156.41,4070.77,3840,4383.59,4154.87,4554.87,4540,4295.9,3927.18,4235.38,4612.31,4414.36,4632.31,1690,1710,1.56,0,0,0,0,
50,4071.79,4161.54,4072.82,3841.54,4377.95,4155.38,4557.44,4536.92,4293.33,3926.67,4233.85,4610.77,4414.87,4633.33,1689,1711,1.567,0,0,0,0,
51,4075.9,4167.69,4067.18,3846.67,4376.92,4150.77,4555.9,4533.33,4288.21,3914.87,4233.85,4604.62,4410.26,4633.85,1690,1711,1.575,0,0,0,0,
52,4072.31,4162.56,4067.69,3846.15,4373.33,4154.87,4555.38,4536.41,4293.33,3910.77,4235.38,4601.03,4411.28,4634.87,1689,1712,1.583,0,0,0,0,
53,4061.03,4154.36,4060.51,3835.9,4369.23,4155.38,4554.87,4535.38,4295.38,3923.59,4233.85,4597.95,4411.79,4630.26,1690,1711,1.591,0,0,0,0,
54,4055.38,4151.79,4050.77,3829.23,4362.56,4142.56,4550.77,4525.13,4284.62,3929.23,4228.72,4595.9,4406.67,4623.08,1689,1711,1.599,0,0,0,0,
55,4066.15,4151.79,4055.9,3831.28,4368.21,4143.08,4551.28,4525.64,4284.1,3922.56,4229.74,4596.92,4406.67,4625.64,1691,1710,1.607,0,0,0,0,
56,4075.9,4162.56,4063.08,3833.85,4382.05,4155.38,4553.33,4536.92,4296.92,3922.05,4234.87,4601.54,4413.33,4630.77,1690,1708,1.614,0,0,0,0,
57,4069.23,4168.21,4062.05,3834.87,4371.79,4158.97,4554.36,4541.03,4302.56,3933.33,4236.41,4606.67,4414.87,4630.77,1691,1709,1.622,0,0,0,0,
58,4064.1,4158.97,4061.54,3834.36,4362.05,4159.49,4560.51,4540.51,4299.49,3938.46,4234.87,4606.67,4413.33,4631.28,1692,1706,1.63,0,0,0,0,
59,4068.72,4153.33,4063.08,3840,4374.87,4161.03,4562.05,4541.03,4297.95,3931.79,4234.36,4603.59,4414.36,4634.36,1691,1708,1.638,0,0,0,0,
60,4064.1,4155.38,4061.03,3846.15,4382.05,4152.82,4555.38,4539.49,4295.38,3926.67,4232.82,4601.03,4410.26,4634.36,1692,1708,1.646,0,0,0,0,
61,4053.85,4153.33,4058.46,3841.54,4364.1,4148.21,4550.77,4533.85,4289.23,3922.56,4225.64,4595.38,4398.46,4623.08,1692,1709,1.653,0,0,0,0,
62,4052.82,4148.72,4056.41,3831.28,4350.77,4153.85,4552.31,4529.74,4281.54,3917.44,4223.08,4591.28,4393.33,4613.33,1693,1709,1.661,0,0,0,0,
63,4059.49,4153.33,4058.97,3829.23,4363.08,4153.85,4552.31,4532.31,4277.95,3919.49,4228.72,4595.9,4400.51,4620,1692,1710,1.669,0,0,0,0,
64,4072.82,4164.62,4067.18,3841.03,4377.95,4150.77,4555.9,4538.97,4287.69,3928.72,4234.87,4603.59,4412.31,4634.36,1692,1710,1.677,0,0,0,0,
65,4077.44,4166.67,4068.72,3848.72,4377.44,4153.33,4558.97,4541.03,4298.97,3931.79,4236.92,4605.64,4414.87,4636.92,1691,1710,1.685,0,0,0,0,
66,4063.59,4156.92,4063.08,3834.36,4364.62,4157.44,4557.44,4536.92,4291.28,3923.08,4228.72,4605.64,4403.59,4626.15,1692,1710,1.693,0,0,0,0,
67,4053.33,4148.72,4060,3826.15,4355.38,4153.33,4553.85,4528.72,4276.92,3910.26,4219.49,4600.51,4392.31,4615.38,1690,1710,1.701,0,0,0,0,
68,4052.31,4141.54,4057.44,3831.28,4345.13,4144.1,4551.79,4522.56,4283.08,3906.15,4215.9,4590.77,4386.67,4612.31,1690,1712,1.708,0,0,0,0,
69,4052.82,4141.54,4054.87,3831.28,4350.26,4148.21,4554.87,4528.72,4293.33,3914.36,4214.36,4590.26,4387.18,4616.41,1690,1710,1.716,0,0,0,0,
70,4056.92,4155.9,4061.54,3834.87,4378.46,4158.97,4557.44,4536.41,4290.26,3922.56,4218.46,4598.46,4399.49,4621.54,1689,1711,1.724,0,0,0,0,
71,4062.56,4159.49,4069.23,3839.49,4380.51,4156.41,4555.38,4538.46,4293.33,3925.64,4229.74,4605.13,4406.15,4626.67,1690,1709,1.732,0,0,0,0,
72,4061.54,4150.26,4063.59,3832.82,4354.36,4152.82,4553.85,4535.38,4295.9,3926.15,4231.28,4601.54,4402.05,4633.85,1688,1709,1.74,0,0,0,0,
73,4065.13,4155.9,4061.03,3838.97,4356.92,4156.92,4552.82,4527.18,4285.13,3926.67,4228.21,4600,4404.62,4635.9,1691,1709,1.748,0,0,0,0,
74,4069.74,4160.51,4068.72,3849.23,4375.38,4154.36,4550.77,4522.05,4277.44,3923.08,4232.31,4602.56,4409.74,4627.18,1690,1709,1.755,0,0,0,0,
75,4063.08,4149.74,4067.18,3835.9,4359.49,4147.18,4549.74,4523.08,4274.36,3912.31,4225.13,4595.38,4400,4617.95,1692,1709,1.763,0,0,0,0,
76,4055.38,4146.67,4055.38,3824.62,4346.15,4143.59,4547.69,4520,4262.56,3904.1,4208.72,4583.59,4389.23,4610.77,1692,1710,1.771,0,0,0,0,
77,4057.95,4157.95,4057.44,3833.33,4365.64,4144.62,4547.18,4516.41,4259.49,3905.13,4212.82,4585.64,4394.87,4610.77,1693,1710,1.779,0,0,0,0,
78,4064.62,4168.72,4066.67,3842.05,4373.33,4149.74,4552.82,4522.05,4273.33,3911.28,4226.67,4598.46,4408.21,4625.13,1693,1711,1.787,0,0,0,0,
79,4066.67,4169.23,4064.62,3846.67,4365.13,4151.79,4556.41,4525.64,4282.05,3915.38,4225.64,4597.44,4410.77,4631.79,1692,1712,1.794,0,0,0,0,
80,4060,4161.54,4057.95,3845.64,4360,4141.03,4553.85,4526.15,4276.92,3911.79,4215.9,4587.69,4398.46,4619.49,1693,1710,1.802,0,0,0,0,
81,4052.82,4155.38,4058.97,3833.33,4361.54,4134.87,4553.33,4532.82,4277.95,3909.74,4216.41,4590.77,4394.36,4612.31,1691,1711,1.81,0,0,0,0,
82,4056.92,4156.41,4062.05,3829.23,4369.23,4145.64,4555.9,4541.54,4290.77,3921.03,4225.64,4601.54,4403.08,4621.03,1692,1710,1.818,0,0,0,0,
83,4062.56,4157.44,4060.51,3837.95,4370.77,4153.33,4554.87,4539.49,4293.33,3928.21,4227.69,4601.03,4403.08,4627.69,1690,1709,1.826,0,0,0,0,
84,4060,4153.33,4057.95,3839.49,4364.62,4151.79,4552.31,4528.72,4280.51,3917.95,4224.1,4594.36,4400,4627.18,1690,1709,1.833,0,0,0,0,
85,4059.49,4155.9,4061.54,3835.9,4362.05,4149.23,4552.82,4522.56,4277.95,3911.28,4227.18,4596.92,4401.54,4624.1,1689,1709,1.841,0,0,0,0,
86,4066.15,4166.67,4069.74,3842.05,4361.54,4152.82,4556.41,4525.64,4283.08,3916.41,4230.77,4603.08,4403.08,4624.62,1689,1710,1.849,0,0,0,0,
87,4066.15,4169.23,4068.72,3847.69,4360,4153.85,4554.36,4524.1,4276.41,3913.33,4220,4597.95,4398.97,4623.59,1689,1710,1.857,0,0,0,0,
88,4062.05,4165.13,4061.54,3845.64,4366.15,4152.82,4549.23,4518.46,4271.79,3907.69,4212.82,4590.26,4395.38,4619.49,1689,1710,1.865,0,0,0,0,
89,4067.18,4168.72,4069.74,3847.18,4375.38,4153.33,4552.82,4523.08,4280,3917.44,4222.56,4597.95,4401.54,4625.64,1690,1710,1.873,0,0,0,0,
90,4071.28,4172.31,4077.44,3847.69,4374.87,4152.31,4554.36,4527.18,4283.08,3920.51,4226.15,4605.64,4407.18,4635.9,1690,1711,1.88,0,0,0,0,
91,4067.18,4169.74,4068.72,3842.05,4370.77,4151.79,4550.77,4524.1,4280,3913.33,4221.54,4600.51,4399.49,4632.31,1692,1709,1.888,0,0,0,0,
92,4066.15,4171.79,4064.62,3846.67,4371.28,4156.41,4553.33,4527.69,4288.21,3921.03,4222.05,4598.97,4397.44,4628.72,1691,1711,1.896,0,0,0,0,
93,4069.23,4172.82,4067.18,3850.26,4372.31,4155.9,4556.41,4535.9,4292.31,3930.26,4221.03,4600.51,4403.59,4632.31,1692,1711,1.904,0,0,0,0,
94,4064.62,4167.69,4062.56,3838.97,4367.18,4148.21,4553.33,4537.95,4284.1,3917.95,4217.44,4597.95,4402.05,4627.18,1691,1711,1.912,0,0,0,0,
95,4057.44,4166.67,4057.95,3831.28,4365.13,4146.67,4552.31,4534.87,4282.56,3913.33,4218.97,4596.41,4396.92,4616.41,1692,1711,1.919,0,0,0,0,
96,4060.51,4169.23,4056.92,3836.41,4366.67,4152.31,4553.85,4532.82,4286.67,3925.13,4218.97,4591.79,4396.92,4616.92,1692,1710,1.927,0,0,0,0,
97,4066.15,4167.69,4058.97,3840,4365.64,4154.36,4552.82,4532.82,4286.15,3925.64,4216.41,4586.15,4398.46,4623.08,1692,1710,1.935,0,0,0,0,
98,4067.18,4165.64,4064.62,3841.03,4365.64,4150.77,4552.82,4535.9,4289.74,3920.51,4224.1,4592.82,4400,4623.59,1691,1710,1.943,0,0,0,0,
99,4066.15,4169.23,4070.26,3844.1,4365.64,4153.33,4555.9,4539.49,4299.49,3927.18,4231.28,4605.13,4402.05,4629.23,1690,1710,1.951,0,0,0,0,
100,4065.64,4167.18,4066.67,3845.13,4362.05,4154.36,4556.41,4534.36,4293.85,3927.69,4226.67,4601.03,4400,4634.36,1690,1710,1.959,0,0,0,0,
101,4062.56,4155.9,4058.46,3843.59,4366.15,4144.62,4551.28,4522.05,4269.23,3910.26,4214.36,4588.21,4394.36,4621.54,1690,1710,1.966,0,0,0,0,
102,4067.18,4156.41,4063.59,3844.62,4377.44,4142.05,4549.74,4520.51,4265.13,3906.15,4216.92,4592.82,4394.87,4620.51,1691,1710,1.974,0,0,0,0,
103,4075.38,4169.23,4074.87,3846.67,4371.79,4154.87,4555.9,4527.69,4282.56,3916.41,4227.69,4604.1,4401.03,4634.36,1691,1710,1.983,0,0,0,0,
104,4071.28,4170.26,4071.28,3850.26,4352.31,4157.44,4553.33,4525.64,4284.62,3915.38,4223.08,4600,4400.51,4626.67,1691,1709,1.99,0,0,0,0,
105,4066.15,4163.08,4065.64,3841.03,4356.92,4145.13,4544.1,4518.97,4273.33,3906.15,4212.31,4594.36,4394.36,4615.38,1692,1710,1.998,0,0,0,0,
106,4074.87,4168.21,4074.87,3833.85,4373.33,4148.21,4548.21,4522.05,4277.44,3904.62,4219.49,4601.03,4396.92,4633.85,1692,1710,2.005,0,0,0,0,
107,4078.97,4173.85,4077.95,3843.59,4366.15,4156.92,4557.44,4526.15,4285.64,3912.82,4230.26,4604.62,4402.56,4642.05,1692,1710,2.013,0,0,0,0,
108,4067.69,4163.59,4065.13,3849.23,4355.9,4145.13,4554.36,4524.62,4281.54,3921.54,4223.08,4599.49,4400.51,4620.51,1692,1711,2.021,0,0,0,0,
109,4063.08,4157.44,4060.51,3843.08,4368.21,4133.33,4548.72,4520.51,4278.46,3916.92,4213.33,4596.92,4395.9,4616.41,1691,1712,2.029,0,0,0,0,
110,4072.31,4166.15,4069.74,3844.1,4383.08,4144.62,4550.77,4523.08,4280.51,3907.69,4216.41,4597.95,4396.41,4636.92,1691,1710,2.037,0,0,0,0,
111,4077.44,4173.33,4077.95,3849.74,4375.38,4156.92,4557.44,4533.85,4286.15,3918.97,4226.67,4602.05,4402.56,4644.62,1689,1711,2.045,0,0,0,0,
112,4075.38,4167.18,4073.33,3847.69,4355.38,4150.77,4555.9,4533.85,4286.67,3925.13,4225.64,4603.08,4403.08,4635.38,1691,1710,2.052,0,0,0,0,
113,4074.36,4163.59,4068.21,3845.13,4364.62,4146.15,4542.05,4524.1,4280.51,3911.79,4217.95,4599.49,4394.87,4631.28,1689,1709,2.06,0,0,0,0,
114,4076.92,4170.77,4073.85,3847.18,4384.62,4152.82,4540,4522.05,4279.49,3915.38,4222.05,4602.56,4401.03,4634.87,1691,1711,2.068,0,0,0,0,
115,4078.46,4173.85,4080.51,3850.26,4374.36,4152.31,4553.33,4530.26,4282.05,3930.26,4234.87,4610.26,4414.36,4634.36,1691,1710,2.076,0,0,0,0,
116,4078.97,4169.23,4078.46,3851.28,4360,4138.46,4551.79,4534.36,4282.56,3921.03,4232.31,4607.18,4409.23,4633.85,1690,1712,2.083,0,0,0,0,
117,4074.36,4163.08,4074.36,3843.59,4361.03,4131.28,4543.08,4528.72,4282.56,3909.74,4218.46,4600.51,4396.92,4632.31,1690,1712,2.091,0,0,0,0,
118,4070.77,4167.18,4074.87,3844.1,4363.08,4143.59,4550.77,4526.15,4283.59,3917.44,4221.54,4602.56,4397.44,4630.77,1690,1712,2.099,0,0,0,0,
119,4073.33,4170.77,4076.41,3852.31,4364.62,4152.82,4558.46,4528.21,4280.51,3918.97,4227.69,4604.62,4401.54,4631.28,1691,1711,2.107,0,0,0,0,
120,4070.26,4158.46,4070.26,3841.54,4363.59,4149.23,4551.28,4527.18,4279.49,3912.31,4221.03,4598.46,4396.41,4625.64,1690,1712,2.115,0,0,0,0,
121,4061.03,4150.77,4061.03,3830.26,4364.62,4150.26,4548.21,4523.08,4286.67,3915.38,4213.33,4593.85,4388.72,4616.41,1691,1711,2.123,0,0,0,0,
122,4062.56,4155.38,4064.62,3842.56,4374.36,4155.38,4553.33,4525.13,4289.74,3916.92,4215.38,4595.38,4385.64,4615.9,1689,1712,2.131,0,0,0,0,
123,4067.69,4154.36,4073.33,3850.77,4373.85,4153.33,4554.36,4524.62,4282.56,3911.28,4218.46,4598.46,4389.23,4624.1,1691,1710,2.138,0,0,0,0,
124,4067.69,4158.46,4075.9,3843.59,4369.74,4151.28,4554.36,4522.05,4278.97,3911.28,4219.49,4600.51,4395.38,4631.79,1690,1710,2.147,0,0,0,0,
125,4069.74,4167.69,4075.38,3845.64,4371.28,4154.36,4555.38,4525.13,4287.18,3913.33,4219.49,4602.05,4398.46,4633.85,1691,1710,2.154,0,0,0,0,
126,4072.31,4168.21,4074.87,3851.28,4363.59,4155.38,4552.82,4532.31,4294.87,3916.92,4215.9,4602.05,4397.44,4630.77,1691,1708,2.162,0,0,0,0,
127,4073.85,4173.85,4075.38,3849.23,4361.54,4152.82,4551.79,4534.87,4294.87,3924.62,4220.51,4600,4396.41,4631.28,1691,1710,2.17,0,0,0,0,
128,4074.36,4181.03,4076.41,3846.15,4369.23,4150.77,4552.31,4527.18,4293.33,3928.72,4229.23,4601.54,4399.49,4635.38,1691,1709,2.178,0,0,0,0,
0,4070.26,4172.82,4073.33,3844.1,4369.23,4150.77,4547.18,4521.03,4288.72,3925.13,4225.13,4602.56,4400,4631.28,1691,1710,2.185,0,0,0,0,
1,4063.08,4167.18,4065.64,3845.64,4370.77,4149.74,4538.97,4521.54,4281.03,3916.41,4215.9,4593.85,4392.31,4621.03,1692,1709,2.193,0,0,0,0,
2,4061.03,4171.28,4063.08,3844.62,4374.87,4151.28,4540,4521.54,4276.92,3909.23,4214.36,4587.18,4387.18,4616.92,1691,1710,2.201,0,0,0,0,
3,4063.59,4168.21,4067.69,3838.97,4367.18,4154.36,4553.85,4521.54,4278.97,3910.26,4218.46,4592.82,4390.77,4623.59,1692,1710,2.209,0,0,0,0,
4,4063.59,4166.67,4067.18,3843.08,4363.08,4154.36,4556.41,4523.59,4278.97,3913.33,4217.44,4595.38,4389.74,4622.56,1691,1711,2.217,0,0,0,0,
5,4058.97,4167.18,4060.51,3847.69,4370.77,4153.33,4544.62,4523.08,4275.9,3908.72,4208.72,4586.15,4376.92,4608.21,1691,1711,2.225,0,0,0,0,
6,4050.77,4158.97,4057.44,3836.41,4361.03,4146.67,4541.54,4520,4276.92,3904.1,4198.97,4580.51,4368.72,4601.54,1691,1710,2.232,0,0,0,0,
7,4051.28,4161.03,4061.54,3829.23,4350.77,4143.08,4550.77,4524.62,4282.56,3907.18,4202.05,4587.18,4372.82,4615.9,1691,1710,2.24,0,0,0,0,
8,4057.95,4169.23,4063.59,3833.33,4355.38,4153.85,4554.36,4526.67,4282.05,3903.59,4205.64,4589.74,4371.79,4620.51,1691,1707,2.248,0,0,0,0,
9,4061.03,4170.26,4063.08,3834.87,4363.59,4156.41,4551.79,4521.54,4276.41,3897.44,4198.97,4585.64,4367.69,4612.31,1690,1708,2.256,0,0,0,0,
10,4064.62,4172.31,4070.77,3848.21,4367.69,4144.62,4552.31,4525.64,4280,3903.59,4201.03,4587.18,4373.85,4618.46,1691,1707,2.264,0,0,0,0,
11,4068.72,4182.56,4076.41,3864.62,4372.31,4150.77,4555.38,4537.95,4287.69,3914.87,4212.82,4593.33,4383.59,4625.13,1690,1709,2.271,0,0,0,0,
12,4068.72,4189.23,4071.28,3855.9,4374.87,4159.49,4555.9,4536.41,4285.64,3913.33,4216.41,4594.87,4384.62,4617.44,1690,1709,2.279,0,0,0,0,
13,4065.13,4181.03,4063.59,3843.59,4369.74,4146.67,4553.33,4523.59,4278.46,3907.18,4212.31,4588.72,4378.46,4615.9,1689,1711,2.288,0,0,0,0,
14,4064.62,4172.82,4067.69,3848.72,4367.18,4148.72,4554.87,4527.18,4285.13,3917.44,4214.36,4590.77,4385.64,4627.18,1690,1710,2.295,0,0,0,0,
15,4063.59,4173.85,4069.23,3841.03,4370.77,4161.54,4558.97,4540.51,4298.97,3930.26,4223.08,4594.36,4398.46,4630.26,1689,1710,2.303,0,0,0,0,
16,4055.9,4172.82,4055.38,3823.59,4366.15,4153.33,4555.38,4536.41,4293.85,3918.97,4217.95,4587.69,4391.28,4613.33,1690,1711,2.311,0,0,0,0,
17,4049.74,4168.21,4050.77,3833.85,4356.92,4154.87,4552.82,4524.62,4282.05,3900.51,4204.62,4581.03,4378.97,4603.59,1689,1708,2.318,0,0,0,0,
18,4054.36,4172.82,4058.46,3845.64,4360.51,4169.23,4555.9,4523.08,4284.62,3900,4202.05,4583.08,4380.51,4610.77,1690,1709,2.326,0,0,0,0,
19,4061.03,4185.64,4061.03,3846.15,4374.87,4164.1,4554.36,4523.08,4285.13,3904.1,4206.15,4587.69,4379.49,4619.49,1691,1707,2.334,0,0,0,0,
20,4058.97,4183.59,4057.95,3849.74,4374.36,4151.79,4550.26,4520.51,4278.46,3894.36,4200.51,4584.1,4371.28,4614.87,1690,1708,2.342,0,0,0,0,
21,4054.87,4172.31,4056.92,3844.62,4366.15,4153.33,4550.26,4519.49,4277.44,3890.26,4194.36,4581.03,4369.23,4601.54,1691,1707,2.35,0,0,0,0,
22,4061.03,4176.92,4060.51,3835.9,4365.13,4157.44,4553.85,4522.56,4280.51,3903.08,4204.1,4587.69,4377.44,4606.15,1690,1707,2.358,0,0,0,0,
23,4074.87,4190.26,4071.28,3845.13,4368.21,4154.87,4555.9,4532.82,4287.69,3915.38,4218.46,4600.51,4391.28,4625.13,1691,1707,2.365,0,0,0,0,
24,4079.49,4187.69,4078.46,3853.33,4368.72,4150.77,4553.85,4534.87,4290.26,3912.31,4221.03,4603.59,4390.26,4624.62,1690,1708,2.373,0,0,0,0,
25,4076.41,4182.56,4075.9,3848.72,4372.31,4151.79,4551.79,4531.28,4282.05,3908.21,4215.38,4600,4383.59,4619.49,1691,1709,2.381,0,0,0,0,
26,4077.95,4194.36,4077.44,3850.77,4374.36,4157.44,4555.38,4533.85,4280,3913.33,4217.44,4605.13,4394.36,4634.87,1690,1710,2.389,0,0,0,0,
27,4072.82,4194.36,4075.38,3843.08,4357.95,4154.36,4555.9,4529.23,4281.54,3906.67,4218.46,4600,4394.87,4632.31,1691,1711,2.397,0,0,0,0,
28,4064.62,4179.49,4068.21,3831.79,4349.23,4151.28,4552.82,4522.56,4278.46,3896.41,4211.28,4589.23,4378.46,4613.85,1690,1711,2.407,0,0,0,0,
29,4074.87,4181.03,4072.31,3843.59,4365.64,4163.08,4562.05,4534.36,4286.15,3907.69,4217.44,4597.44,4386.15,4625.64,1691,1710,2.412,0,0,0,0,
30,4076.92,4189.23,4077.95,3855.38,4381.54,4169.23,4568.72,4543.08,4299.49,3922.05,4230.26,4609.23,4402.56,4641.03,1691,1711,2.42,0,0,0,0,
31,4061.54,4186.67,4074.87,3849.74,4377.44,4167.18,4562.05,4537.44,4299.49,3921.54,4230.26,4606.15,4392.82,4630.26,1692,1710,2.428,0,0,0,0,
32,4062.05,4183.59,4073.33,3845.13,4371.79,4167.18,4558.97,4536.92,4296.92,3922.05,4224.62,4601.03,4387.18,4622.05,1692,1710,2.436,0,0,0,0,
33,4076.92,4189.74,4080,3855.9,4373.85,4162.56,4560.51,4540,4298.46,3927.69,4228.72,4605.64,4402.56,4632.82,1693,1709,2.444,0,0,0,0,
34,4081.03,4200,4085.64,3865.13,4378.97,4152.31,4554.87,4535.38,4298.97,3920.51,4233.33,4612.31,4409.23,4642.56,1692,1709,2.452,0,0,0,0,
35,4077.44,4202.56,4082.05,3861.54,4381.03,4152.82,4550.77,4526.67,4292.82,3910.77,4228.21,4611.79,4402.05,4643.08,1693,1710,2.459,0,0,0,0,
36,4071.79,4189.23,4071.28,3846.15,4363.08,4160,4552.82,4518.97,4281.03,3910.26,4218.46,4600.51,4394.36,4631.28,1693,1709,2.467,0,0,0,0,
37,4064.62,4180.51,4064.1,3841.03,4350.26,4155.9,4550.77,4515.9,4274.36,3908.72,4211.79,4591.28,4390.26,4617.44,1691,1711,2.475,0,0,0,0,
38,4072.31,4193.33,4070.26,3855.9,4372.82,4151.28,4551.28,4523.59,4284.62,3910.26,4220,4600,4393.33,4624.1,1693,1710,2.483,0,0,0,0,
39,4087.18,4203.59,4080,3861.03,4389.23,4152.82,4555.38,4536.41,4297.44,3925.13,4233.85,4610.77,4401.54,4638.97,1690,1711,2.491,0,0,0,0,
40,4086.15,4191.79,4080,3853.85,4370.77,4155.38,4554.36,4533.85,4293.85,3926.67,4229.74,4606.67,4401.54,4636.41,1691,1711,2.498,0,0,0,0,
41,4074.87,4180,4073.33,3855.38,4360,4153.33,4550.77,4523.08,4290.77,3911.79,4215.9,4597.95,4393.85,4630.26,1690,1710,2.506,0,0,0,0,
42,4070.77,4183.08,4073.33,3857.44,4366.15,4151.79,4551.79,4523.59,4294.36,3910.77,4217.44,4600,4391.79,4633.33,1690,1710,2.514,0,0,0,0,
43,4066.15,4182.05,4075.9,3845.64,4356.41,4161.03,4555.38,4526.67,4288.21,3914.36,4222.05,4601.54,4385.64,4623.08,1689,1710,2.522,0,0,0,0,
44,4063.59,4178.46,4073.33,3841.03,4358.97,4167.18,4557.44,4527.18,4282.56,3909.23,4214.36,4597.95,4384.1,4620,1690,1709,2.53,0,0,0,0,
45,4067.69,4177.95,4073.33,3846.15,4373.33,4161.54,4563.59,4537.44,4293.85,3911.79,4216.41,4600,4393.85,4630.77,1689,1709,2.537,0,0,0,0,
46,4066.67,4172.31,4072.82,3841.03,4369.23,4155.38,4565.13,4543.08,4298.97,3915.38,4219.49,4601.03,4389.23,4624.62,1690,1709,2.545,0,0,0,0,
47,4066.15,4176.41,4071.79,3850.77,4369.74,4156.92,4556.92,4532.31,4287.18,3909.23,4213.85,4598.97,4378.46,4616.41,1691,1708,2.553,0,0,0,0,
48,4075.9,4194.87,4078.97,3869.23,4381.54,4156.41,4554.87,4524.62,4281.54,3912.31,4221.03,4603.59,4391.79,4631.28,1691,1709,2.561,0,0,0,0,
49,4076.92,4194.36,4081.54,3860.51,4366.67,4150.77,4557.44,4524.62,4281.54,3915.9,4226.67,4606.67,4399.49,4636.41,1692,1708,2.569,0,0,0,0,
50,4067.18,4182.05,4075.38,3847.18,4354.36,4155.9,4555.9,4522.56,4278.46,3902.56,4215.9,4600.51,4383.59,4619.49,1691,1710,2.577,0,0,0,0,
51,4066.15,4182.56,4074.87,3851.28,4372.82,4163.08,4558.46,4526.67,4283.59,3898.97,4213.33,4597.95,4382.05,4617.95,1692,1710,2.584,0,0,0,0,
52,4066.67,4185.13,4076.92,3853.33,4380,4156.92,4561.54,4537.44,4297.95,3915.38,4221.03,4602.56,4393.33,4630.26,1691,1710,2.592,0,0,0,0,
53,4064.1,4185.13,4071.79,3848.72,4369.23,4152.82,4555.9,4540,4302.56,3920,4218.97,4603.08,4392.31,4631.28,1692,1711,2.6,0,0,0,0,
54,4061.54,4181.03,4063.08,3843.59,4360,4156.41,4553.33,4532.82,4293.33,3909.23,4212.82,4595.38,4385.64,4617.44,1691,1710,2.608,0,0,0,0,
55,4064.1,4178.97,4064.62,3843.08,4360.51,4154.36,4557.95,4537.44,4294.36,3912.31,4217.44,4595.38,4387.18,4617.44,1691,1711,2.616,0,0,0,0,
56,4068.72,4187.18,4070.26,3852.31,4370.26,4158.97,4556.92,4540,4298.46,3917.95,4222.05,4602.56,4391.79,4631.28,1691,1710,2.623,0,0,0,0,
57,4061.03,4183.59,4066.15,3854.87,4369.23,4171.28,4555.38,4525.13,4285.64,3903.59,4210.26,4595.38,4383.59,4625.64,1691,1711,2.632,0,0,0,0,
58,4051.79,4172.31,4056.92,3845.13,4361.03,4164.62,4555.9,4516.92,4274.87,3896.41,4203.59,4582.56,4376.92,4614.87,1691,1709,2.64,0,0,0,0,
59,4056.92,4177.95,4058.46,3843.08,4365.13,4152.31,4554.87,4522.56,4279.49,3904.62,4212.82,4584.62,4381.03,4619.49,1690,1711,2.647,0,0,0,0,
60,4063.08,4182.05,4065.13,3850.26,4377.44,4157.44,4555.9,4526.15,4285.13,3904.62,4209.74,4589.74,4381.54,4623.59,1691,1709,2.655,0,0,0,0,
61,4057.44,4167.18,4061.03,3846.15,4372.31,4156.41,4552.82,4518.46,4278.46,3891.79,4194.36,4584.62,4373.85,4611.79,1690,1710,2.663,0,0,0,0,
62,4055.38,4169.23,4056.92,3841.54,4358.46,4149.74,4550.77,4513.33,4271.28,3894.87,4202.05,4587.18,4373.85,4608.21,1690,1711,2.67,0,0,0,0,
63,4060.51,4186.15,4065.64,3848.72,4355.38,4155.38,4557.95,4525.64,4282.56,3911.79,4219.49,4598.97,4386.67,4623.08,1690,1710,2.678,0,0,0,0,
64,4069.23,4187.18,4075.38,3851.28,4370.77,4157.95,4562.56,4537.44,4295.9,3916.92,4221.03,4602.56,4393.85,4631.28,1690,1711,2.685,0,0,0,0,
65,4076.92,4182.56,4075.38,3849.74,4385.13,4152.31,4556.92,4529.74,4288.72,3910.77,4216.41,4599.49,4388.21,4629.23,1691,1711,2.694,0,0,0,0,
66,4069.74,4182.05,4067.69,3848.21,4366.15,4153.33,4554.36,4521.03,4277.95,3907.18,4214.87,4599.49,4378.97,4625.64,1691,1712,2.702,0,0,0,0,
67,4062.56,4181.54,4065.13,3846.15,4350.26,4154.87,4557.95,4527.18,4285.13,3912.31,4217.44,4600.51,4380,4626.15,1690,1712,2.71,0,0,0,0,
68,4067.69,4184.1,4069.23,3848.21,4366.15,4152.82,4556.92,4533.85,4294.87,3913.85,4219.49,4600,4387.69,4630.26,1691,1713,2.717,0,0,0,0,
69,4069.74,4187.18,4073.33,3852.31,4369.23,4159.49,4556.41,4533.85,4294.87,3911.28,4218.97,4600.51,4386.67,4631.79,1691,1711,2.725,0,0,0,0,
70,4062.56,4181.03,4067.69,3850.26,4354.36,4162.56,4557.95,4529.23,4287.18,3912.31,4214.87,4598.97,4377.95,4625.64,1690,1711,2.733,0,0,0,0,
71,4055.38,4170.77,4059.49,3841.03,4360.51,4152.31,4555.38,4522.56,4282.05,3907.69,4206.15,4594.36,4370.26,4611.79,1691,1709,2.741,0,0,0,0,
72,4058.97,4177.95,4066.15,3846.15,4378.97,4148.72,4557.44,4528.72,4288.72,3906.67,4207.69,4596.92,4375.9,4608.72,1690,1709,2.749,0,0,0,0,
73,4072.82,4190.26,4081.54,3859.49,4376.41,4157.44,4567.69,4543.59,4301.03,3921.03,4220,4606.15,4390.26,4623.08,1691,1709,2.757,0,0,0,0,
74,4074.87,4183.08,4081.54,3855.9,4363.59,4159.49,4567.18,4537.95,4295.9,3922.05,4219.49,4604.62,4389.23,4629.74,1691,1708,2.764,0,0,0,0,
75,4065.13,4182.05,4072.31,3845.64,4367.69,4154.36,4555.9,4522.56,4280.51,3908.21,4211.79,4598.97,4379.49,4622.56,1691,1709,2.772,0,0,0,0,
76,4072.31,4202.05,4077.44,3854.87,4377.44,4156.92,4555.38,4527.69,4283.59,3912.82,4218.46,4608.72,4387.18,4627.69,1692,1709,2.78,0,0,0,0,
77,4082.05,4202.56,4082.56,3863.59,4368.21,4156.92,4559.49,4534.36,4289.74,3920.51,4222.56,4612.31,4394.36,4638.97,1692,1710,2.788,0,0,0,0,
78,4069.23,4188.72,4075.38,3855.9,4364.1,4150.77,4553.85,4525.64,4282.05,3910.77,4215.38,4600,4385.64,4626.67,1692,1710,2.796,0,0,0,0,
79,4061.54,4196.41,4074.87,3856.41,4376.92,4150.26,4554.87,4524.1,4281.54,3909.23,4213.85,4600,4380.51,4611.79,1692,1711,2.803,0,0,0,0,
80,4073.33,4201.54,4078.46,3863.08,4377.95,4155.38,4564.1,4528.72,4287.69,3913.33,4216.92,4609.74,4383.59,4622.05,1692,1711,2.811,0,0,0,0,
81,4077.95,4193.33,4074.87,3861.54,4375.9,4157.44,4562.56,4529.74,4288.21,3912.82,4217.95,4606.67,4386.67,4634.36,1691,1712,2.818,0,0,0,0,
82,4070.77,4197.44,4071.79,3861.03,4381.03,4153.85,4554.87,4534.87,4291.79,3918.46,4217.95,4601.03,4393.33,4630.26,1691,1710,2.828,0,0,0,0,
83,4067.18,4204.62,4070.26,3861.03,4375.9,4152.31,4554.36,4534.87,4291.79,3919.49,4217.44,4600.51,4395.9,4623.59,1690,1710,2.835,0,0,0,0,
84,4071.28,4204.1,4067.18,3860,4375.9,4153.33,4553.85,4522.05,4281.54,3911.28,4217.95,4600.51,4391.28,4634.87,1690,1708,2.843,0,0,0,0,
85,4085.64,4207.69,4074.36,3860.51,4381.54,4155.38,4552.82,4520,4286.67,3912.82,4220,4607.18,4396.92,4657.95,1690,1707,2.85,0,0,0,0,
86,4113.33,4217.95,4088.21,3865.64,4373.85,4154.36,4553.33,4525.13,4288.72,3914.36,4221.54,4617.95,4407.69,4686.67,1689,1707,2.858,0,0,0,0,
87,4155.9,4236.41,4102.56,3882.05,4367.69,4149.74,4552.31,4515.9,4270.26,3908.21,4227.69,4627.69,4414.87,4731.79,1689,1709,2.866,0,0,0,0,
88,4207.69,4261.03,4120.51,3896.92,4369.74,4144.62,4551.79,4505.13,4260.51,3906.67,4235.9,4642.56,4425.64,4786.67,1690,1709,2.874,0,0,0,0,
89,4258.97,4278.97,4142.05,3898.46,4368.72,4141.03,4552.82,4511.28,4267.69,3907.69,4242.05,4663.59,4441.54,4837.95,1689,1710,2.882,0,0,0,0,
90,4300,4295.38,4163.08,3905.64,4372.82,4139.49,4553.85,4521.03,4272.31,3909.23,4253.85,4683.59,4457.95,4885.64,1691,1709,2.888,0,0,0,0,
91,4322.05,4313.85,4173.33,3921.03,4372.31,4137.44,4551.79,4516.41,4269.74,3913.85,4262.56,4693.85,4464.1,4911.79,1690,1710,2.897,0,0,0,0,
92,4315.38,4311.28,4165.13,3914.87,4355.9,4133.33,4543.59,4504.62,4261.54,3904.1,4253.33,4687.69,4458.46,4906.15,1691,1710,2.905,0,0,0,0,
93,4291.28,4287.18,4151.28,3895.38,4352.82,4133.33,4537.44,4506.67,4257.95,3891.79,4244.1,4672.31,4450.26,4890.77,1691,1709,2.913,0,0,0,0,
94,4270.77,4276.92,4145.13,3892.82,4369.23,4135.9,4543.08,4517.95,4268.72,3903.59,4247.69,4667.18,4446.15,4876.92,1691,1711,2.92,0,0,0,0,
95,4254.36,4279.49,4143.08,3901.54,4379.49,4141.54,4550.26,4525.13,4282.56,3918.46,4251.28,4669.23,4446.15,4852.82,1691,1710,2.929,0,0,0,0,
96,4236.92,4274.87,4137.44,3897.95,4382.05,4152.82,4556.41,4526.67,4283.59,3915.9,4248.21,4666.67,4444.62,4823.08,1691,1710,2.937,0,0,0,0,
97,4218.97,4263.08,4127.18,3884.1,4385.64,4157.95,4563.08,4526.15,4281.54,3912.31,4242.05,4654.36,4434.87,4794.87,1691,1709,2.944,0,0,0,0,
98,4195.38,4247.18,4113.85,3881.54,4386.67,4146.67,4559.49,4525.64,4278.97,3913.33,4234.36,4640,4420,4768.21,1690,1710,2.952,0,0,0,0,
99,4170.26,4232.82,4106.15,3880.51,4381.54,4141.03,4552.82,4523.59,4275.38,3908.72,4228.21,4632.31,4411.79,4743.59,1690,1709,2.96,0,0,0,0,
100,4151.79,4227.69,4103.08,3867.18,4384.1,4151.28,4556.41,4524.62,4283.59,3909.23,4229.23,4630.26,4410.26,4721.03,1690,1711,2.968,0,0,0,0,
101,4143.08,4227.69,4102.05,3863.59,4392.82,4156.41,4559.49,4530.77,4295.38,3921.03,4229.23,4629.23,4409.74,4707.69,1692,1710,2.975,0,0,0,0,
102,4134.36,4218.46,4098.97,3867.18,4382.56,4154.36,4555.38,4529.23,4283.59,3919.49,4221.03,4621.54,4398.97,4697.95,1690,1711,2.983,0,0,0,0,
103,4118.97,4205.13,4089.23,3855.9,4370.26,4152.31,4553.33,4519.49,4264.62,3898.97,4212.31,4606.15,4382.05,4680,1691,1712,2.991,0,0,0,0,
104,4105.13,4200.51,4084.1,3849.74,4377.44,4149.74,4555.38,4521.03,4271.79,3898.46,4211.28,4603.59,4382.56,4665.13,1691,1711,2.999,0,0,0,0,
105,4103.08,4204.62,4087.69,3865.64,4387.18,4153.33,4557.44,4533.85,4294.87,3918.97,4215.9,4612.82,4395.9,4665.13,1690,1713,3.014,0,0,0,0,
106,4101.54,4209.23,4087.69,3873.33,4391.79,4156.92,4557.44,4533.33,4297.95,3916.92,4217.44,4611.28,4394.36,4660,1691,1711,3.015,0,0,0,0,
107,4088.21,4200,4075.38,3860.51,4395.38,4152.31,4553.85,4520,4282.56,3903.08,4208.72,4597.95,4378.97,4637.44,1690,1713,3.023,0,0,0,0,
108,4073.85,4189.23,4065.64,3850.77,4398.97,4152.82,4559.49,4518.97,4277.44,3907.18,4198.97,4588.21,4372.31,4623.59,1690,1712,3.03,0,0,0,0,
109,4066.67,4185.64,4064.1,3851.28,4395.9,4155.38,4568.72,4531.28,4286.67,3910.77,4202.05,4585.64,4375.38,4624.1,1691,1711,3.038,0,0,0,0,
110,4065.13,4184.1,4065.64,3850.77,4385.64,4156.41,4571.28,4541.54,4296.41,3914.36,4214.36,4591.28,4381.54,4621.03,1691,1710,3.046,0,0,0,0,
111,4062.56,4186.15,4066.15,3848.21,4384.1,4162.56,4568.21,4541.54,4298.97,3922.56,4218.97,4596.92,4382.05,4614.87,1690,1710,3.054,0,0,0,0,
112,4052.31,4181.54,4059.49,3845.13,4391.79,4161.54,4564.62,4537.44,4294.36,3915.9,4207.18,4587.69,4372.31,4610.77,1691,1710,3.062,0,0,0,0,
113,4047.69,4175.9,4057.44,3846.67,4395.38,4151.79,4566.67,4540,4292.82,3909.23,4196.92,4582.56,4368.72,4608.72,1690,1710,3.069,0,0,0,0,
114,4051.79,4180.51,4065.13,3850.77,4391.28,4154.87,4565.64,4543.08,4295.38,3914.87,4205.13,4590.26,4377.95,4615.9,1691,1712,3.077,0,0,0,0,
115,4050.77,4183.08,4067.69,3850.77,4384.62,4157.44,4558.46,4537.44,4293.33,3914.87,4215.38,4590.26,4380,4617.44,1691,1711,3.085,0,0,0,0,
116,4050.77,4178.97,4065.13,3848.21,4388.21,4148.21,4560.51,4534.87,4292.31,3916.41,4213.85,4590.77,4378.46,4606.15,1690,1712,3.093,0,0,0,0,
117,4057.95,4181.54,4067.18,3847.69,4396.41,4157.44,4570.26,4540,4295.9,3926.67,4212.82,4598.97,4384.62,4605.64,1691,1711,3.101,0,0,0,0,
118,4058.46,4187.18,4068.72,3851.28,4393.33,4173.85,4572.31,4541.54,4296.92,3926.67,4215.9,4600.51,4386.67,4615.9,1690,1711,3.109,0,0,0,0,
119,4052.31,4182.56,4070.77,3849.74,4392.82,4162.05,4566.67,4536.92,4294.36,3922.05,4214.36,4595.38,4378.46,4617.44,1690,1711,3.116,0,0,0,0,
120,4050.77,4183.08,4075.9,3848.72,4404.1,4153.85,4565.13,4535.38,4294.36,3924.1,4213.33,4596.41,4378.46,4612.82,1689,1712,3.124,0,0,0,0,
121,4053.85,4186.67,4072.82,3852.82,4397.44,4165.13,4565.13,4538.46,4296.41,3926.67,4215.9,4596.92,4383.08,4609.23,1690,1711,3.132,0,0,0,0,
122,4049.23,4173.33,4065.64,3848.72,4377.95,4162.56,4563.59,4539.49,4297.95,3927.18,4212.82,4587.69,4376.41,4602.05,1689,1710,3.14,0,0,0,0,
123,4044.1,4166.15,4065.13,3848.72,4384.1,4147.18,4559.49,4536.92,4291.28,3922.05,4210.26,4584.1,4371.28,4594.87,1690,1710,3.148,0,0,0,0,
124,4047.69,4182.05,4068.21,3857.95,4397.95,4155.9,4558.97,4534.87,4287.69,3919.49,4214.36,4592.31,4378.46,4601.03,1690,1711,3.155,0,0,0,0,
125,4057.95,4193.85,4071.79,3864.62,4400,4172.31,4570.26,4538.46,4296.92,3924.62,4219.49,4600,4384.62,4615.38,1691,1713,3.163,0,0,0,0,
126,4061.54,4187.69,4074.87,3861.54,4393.85,4166.15,4571.28,4539.49,4292.82,3920.51,4218.97,4601.54,4384.62,4616.41,1690,1711,3.171,0,0,0,0,
127,4051.28,4182.56,4070.77,3850.26,4382.05,4153.33,4559.49,4534.36,4274.36,3907.69,4213.33,4598.97,4380.51,4599.49,1689,1713,3.178,0,0,0,0,
128,4044.1,4186.15,4066.15,3846.67,4389.23,4154.36,4559.49,4533.33,4281.03,3916.92,4214.36,4599.49,4381.54,4600,1691,1712,3.187,0,0,0,0,
0,4045.13,4187.18,4068.21,3851.28,4402.56,4160.51,4571.79,4540,4300,3933.33,4221.03,4600,4387.18,4615.9,1689,1712,3.195,0,0,0,0,
1,4039.49,4176.92,4067.69,3846.67,4385.13,4157.44,4569.23,4537.44,4290.77,3922.56,4213.85,4590.77,4378.97,4610.26,1690,1712,3.202,0,0,0,0,
2,4030.77,4162.56,4061.03,3836.92,4362.05,4149.74,4553.85,4525.64,4271.79,3903.08,4195.9,4578.46,4362.05,4594.36,1690,1712,3.21,0,0,0,0,
3,4039.49,4169.74,4058.46,3844.1,4384.1,4151.28,4556.41,4529.74,4283.59,3913.33,4203.08,4583.59,4369.23,4597.44,1690,1712,3.218,0,0,0,0,
4,4054.36,4184.1,4064.1,3854.87,4403.59,4164.1,4570.26,4544.62,4300,3929.23,4220.51,4595.9,4385.13,4608.21,1689,1711,3.226,0,0,0,0,
5,4047.18,4175.38,4063.08,3849.74,4381.03,4170.26,4569.23,4539.49,4289.74,3916.92,4210.77,4589.74,4373.33,4603.08,1689,1711,3.233,0,0,0,0,
6,4039.49,4168.21,4057.44,3845.64,4374.87,4159.49,4558.46,4531.28,4277.44,3904.62,4195.9,4578.97,4361.03,4595.9,1689,1710,3.241,0,0,0,0,
7,4044.1,4174.36,4058.97,3846.67,4390.26,4152.82,4555.9,4537.95,4280.51,3906.15,4200,4582.56,4366.15,4598.97,1690,1708,3.25,0,0,0,0,
8,4042.05,4172.31,4059.49,3843.59,4388.21,4155.9,4557.95,4532.31,4282.05,3899.49,4202.05,4586.15,4366.15,4601.03,1689,1708,3.256,0,0,0,0,
9,4038.46,4167.18,4060,3844.62,4376.41,4154.87,4554.87,4519.49,4277.44,3899.49,4197.44,4583.08,4364.1,4600,1689,1708,3.265,0,0,0,0,
10,4047.69,4169.74,4067.18,3849.23,4372.31,4151.28,4555.9,4528.21,4282.56,3911.79,4200,4584.1,4371.79,4598.97,1688,1710,3.272,0,0,0,0,
11,4055.38,4175.9,4068.72,3849.74,4380.51,4155.9,4563.59,4541.03,4291.79,3913.85,4210.77,4594.36,4376.92,4605.64,1687,1711,3.281,0,0,0,0,
12,4054.87,4182.56,4065.13,3848.21,4397.95,4157.95,4568.21,4540,4295.38,3916.41,4218.46,4601.03,4379.49,4613.85,1686,1711,3.288,0,0,0,0,
13,4058.97,4184.1,4070.26,3852.31,4399.49,4154.36,4568.21,4539.49,4296.41,3924.62,4220,4602.05,4383.08,4618.46,1687,1711,3.296,0,0,0,0,
14,4061.54,4175.9,4074.87,3853.33,4383.08,4153.85,4568.72,4542.05,4294.87,3917.95,4216.41,4600,4379.49,4614.87,1685,1711,3.303,0,0,0,0,
15,4054.36,4167.18,4068.72,3846.15,4380,4152.82,4569.23,4538.46,4295.38,3910.77,4206.67,4591.79,4367.18,4602.05,1686,1711,3.312,0,0,0,0,
16,4048.72,4170.26,4067.69,3850.26,4381.03,4153.33,4567.18,4535.9,4294.36,3911.79,4201.03,4588.72,4362.56,4598.97,1687,1709,3.32,0,0,0,0,
17,4054.36,4179.49,4073.33,3860,4377.44,4158.46,4568.21,4537.95,4295.9,3911.28,4206.15,4592.82,4369.23,4610.26,1686,1710,3.326,0,0,0,0,
18,4060.51,4181.54,4071.28,3857.44,4392.31,4160.51,4568.21,4537.95,4300.51,3911.28,4209.23,4591.79,4373.85,4614.36,1688,1710,3.335,0,0,0,0,
19,4052.31,4171.79,4060.51,3848.21,4398.46,4157.95,4562.56,4532.31,4288.72,3903.08,4198.46,4584.1,4365.64,4600.51,1688,1710,3.343,0,0,0,0,
20,4045.13,4167.69,4057.95,3842.56,4377.95,4156.92,4561.54,4530.77,4276.41,3894.36,4195.9,4584.1,4360,4596.92,1689,1710,3.351,0,0,0,0,
21,4056.92,4176.92,4068.72,3847.69,4372.31,4154.36,4568.72,4539.49,4292.82,3908.21,4216.41,4594.36,4374.87,4612.82,1690,1710,3.358,0,0,0,0,
22,4064.1,4180,4072.82,3857.95,4385.64,4149.74,4569.74,4543.59,4308.72,3920,4222.56,4596.92,4381.54,4616.92,1690,1711,3.366,0,0,0,0,
23,4053.85,4171.28,4067.18,3856.41,4380,4149.74,4564.1,4538.46,4295.38,3910.26,4204.1,4590.26,4367.18,4603.08,1690,1711,3.374,0,0,0,0,
24,4049.74,4164.62,4064.62,3843.08,4367.18,4152.31,4565.13,4536.92,4287.18,3904.62,4201.03,4585.13,4363.59,4598.46,1691,1711,3.382,0,0,0,0,
25,4062.56,4169.23,4069.74,3845.64,4373.33,4155.9,4573.85,4542.05,4296.41,3912.82,4215.38,4589.74,4376.41,4614.36,1690,1711,3.39,0,0,0,0,
26,4064.1,4173.33,4069.23,3852.31,4374.36,4157.95,4574.36,4542.56,4297.44,3913.33,4211.79,4590.77,4374.87,4621.03,1690,1712,3.397,0,0,0,0,
27,4050.26,4168.21,4061.03,3846.15,4368.72,4152.31,4562.56,4536.41,4291.79,3906.67,4197.95,4583.59,4364.62,4609.23,1690,1710,3.406,0,0,0,0,
28,4052.31,4169.23,4062.56,3849.74,4377.95,4150.26,4553.85,4534.87,4293.85,3906.15,4202.05,4583.59,4367.18,4607.18,1689,1711,3.414,0,0,0,0,
29,4062.56,4173.33,4071.28,3853.85,4382.56,4155.38,4555.9,4536.92,4294.87,3913.85,4208.21,4588.21,4371.28,4615.38,1690,1710,3.421,0,0,0,0,
30,4054.87,4171.28,4067.18,3846.15,4374.36,4149.74,4553.33,4526.67,4283.59,3907.69,4201.54,4585.13,4365.64,4610.26,1688,1709,3.429,0,0,0,0,
31,4046.15,4168.72,4056.41,3843.59,4372.82,4142.56,4548.21,4521.54,4276.41,3896.41,4197.44,4579.49,4361.54,4600.51,1689,1709,3.436,0,0,0,0,
32,4053.33,4171.79,4059.49,3851.28,4373.85,4150.77,4556.92,4533.33,4284.62,3901.54,4202.56,4584.62,4367.69,4601.54,1689,1708,3.444,0,0,0,0,
33,4050.77,4167.69,4060.51,3846.67,4366.67,4153.33,4562.56,4534.87,4283.08,3903.59,4198.97,4583.08,4364.1,4596.92,1689,1709,3.452,0,0,0,0,
34,4036.41,4158.97,4048.21,3833.33,4365.13,4141.54,4553.33,4520.51,4273.33,3892.31,4189.23,4568.72,4350.77,4588.72,1689,1709,3.46,0,0,0,0,
35,4036.92,4161.54,4047.18,3834.87,4371.79,4137.95,4550.77,4519.49,4275.9,3892.82,4194.36,4572.82,4355.9,4594.87,1689,1710,3.467,0,0,0,0,
36,4047.69,4169.23,4057.44,3843.08,4372.31,4140.51,4553.85,4526.67,4283.59,3902.05,4203.08,4588.21,4368.21,4607.69,1690,1710,3.476,0,0,0,0,
37,4048.21,4165.64,4060.51,3837.44,4362.56,4135.9,4550.77,4522.56,4276.92,3898.46,4199.49,4587.18,4362.05,4607.18,1690,1711,3.483,0,0,0,0,
38,4044.1,4156.41,4058.97,3827.69,4348.72,4137.95,4549.23,4518.46,4267.69,3893.33,4196.41,4581.03,4354.87,4601.03,1690,1710,3.492,0,0,0,0,
39,4046.67,4158.97,4060.51,3838.46,4353.85,4142.05,4552.31,4520.51,4271.28,3895.38,4200,4584.1,4361.54,4603.59,1689,1711,3.5,0,0,0,0,
40,4048.21,4169.23,4059.49,3850.77,4377.95,4135.9,4551.28,4518.46,4276.41,3897.44,4200.51,4585.13,4364.1,4608.72,1691,1709,3.508,0,0,0,0,
41,4051.79,4173.33,4064.62,3848.21,4382.56,4142.05,4553.33,4521.03,4275.9,3900,4204.62,4590.26,4368.72,4611.28,1690,1709,3.515,0,0,0,0,
42,4055.38,4169.74,4067.69,3848.21,4366.15,4155.38,4557.95,4521.54,4271.79,3898.97,4205.13,4593.85,4373.85,4609.23,1691,1709,3.522,0,0,0,0,
43,4043.08,4167.18,4054.36,3844.1,4365.13,4145.64,4552.82,4509.23,4265.64,3890.26,4191.28,4579.49,4361.03,4604.1,1691,1708,3.531,0,0,0,0,
44,4034.87,4168.72,4047.69,3841.03,4371.28,4132.82,4548.72,4508.21,4265.64,3889.23,4187.69,4572.31,4353.85,4598.46,1690,1708,3.539,0,0,0,0,
45,4041.03,4166.15,4057.95,3843.59,4361.54,4144.62,4558.97,4523.08,4276.41,3894.87,4197.95,4584.1,4362.05,4596.41,1691,1707,3.547,0,0,0,0,
46,4044.1,4166.67,4061.03,3839.49,4366.15,4151.79,4565.13,4528.72,4282.05,3894.87,4202.56,4590.26,4366.15,4602.05,1690,1707,3.554,0,0,0,0,
47,4050.26,4175.9,4058.46,3837.44,4387.18,4141.03,4557.44,4532.31,4279.49,3900.51,4205.64,4587.18,4370.77,4614.87,1690,1708,3.562,0,0,0,0,
48,4055.38,4175.38,4061.03,3847.69,4368.72,4135.9,4553.85,4535.38,4278.97,3908.21,4206.67,4585.64,4373.33,4616.92,1689,1710,3.57,0,0,0,0,
49,4047.18,4166.67,4060,3848.21,4343.08,4141.03,4561.54,4530.26,4281.54,3904.62,4202.56,4584.1,4368.72,4607.69,1690,1709,3.577,0,0,0,0,
50,4049.74,4177.95,4060.51,3842.56,4370.77,4149.74,4569.74,4534.36,4290.26,3906.15,4210.77,4590.77,4377.44,4614.36,1688,1711,3.586,0,0,0,0,
51,4061.54,4186.67,4065.13,3852.31,4388.21,4153.85,4569.23,4545.13,4295.38,3914.87,4220.51,4594.36,4386.67,4625.13,1688,1712,3.593,0,0,0,0,
52,4054.36,4170.77,4062.05,3850.26,4360.51,4147.69,4567.18,4538.46,4287.69,3911.28,4210.77,4586.67,4376.92,4614.87,1687,1712,3.6,0,0,0,0,
53,4046.15,4165.13,4063.08,3841.03,4372.31,4133.85,4564.62,4534.87,4289.74,3908.72,4210.77,4592.31,4374.36,4610.77,1688,1712,3.609,0,0,0,0,
54,4056.92,4177.95,4070.77,3856.41,4394.36,4136.92,4559.49,4544.1,4302.05,3917.44,4220.51,4600.51,4384.1,4623.59,1688,1711,3.616,0,0,0,0,
55,4052.31,4170.26,4064.1,3852.31,4336.92,4150.26,4554.87,4533.33,4289.23,3906.15,4203.59,4585.13,4370.26,4612.82,1688,1712,3.625,0,0,0,0,
56,4042.56,4161.03,4053.33,3828.72,4307.18,4148.72,4557.44,4519.49,4272.31,3893.33,4189.74,4578.46,4357.44,4598.97,1689,1710,3.632,0,0,0,0,
57,4050.77,4177.44,4059.49,3832.31,4363.59,4135.9,4557.95,4528.72,4278.97,3897.95,4200,4591.28,4368.21,4611.28,1689,1710,3.64,0,0,0,0,
58,4053.85,4186.67,4067.69,3848.72,4395.9,4130.26,4552.82,4536.92,4282.05,3896.92,4203.08,4589.74,4370.77,4623.08,1691,1710,3.648,0,0,0,0,
59,4054.87,4183.59,4068.72,3856.92,4381.03,4141.54,4559.49,4535.9,4285.64,3897.95,4203.59,4590.26,4368.72,4624.1,1690,1710,3.656,0,0,0,0,
60,4063.59,4184.62,4069.23,3861.03,4361.03,4152.31,4569.74,4537.95,4295.38,3912.31,4212.82,4600.51,4376.92,4625.13,1691,1709,3.663,0,0,0,0,
61,4063.08,4183.08,4065.64,3856.41,4355.38,4139.49,4563.08,4533.33,4286.15,3912.82,4210.26,4598.46,4378.46,4620,1692,1711,3.672,0,0,0,0,
62,4044.62,4169.23,4054.87,3845.13,4350.77,4119.49,4548.72,4518.97,4263.59,3896.41,4197.44,4584.1,4366.15,4605.64,1691,1711,3.679,0,0,0,0,
63,4033.33,4152.31,4048.21,3836.92,4330.77,4119.49,4546.15,4516.41,4259.49,3890.77,4191.79,4571.79,4355.38,4598.46,1691,1712,3.687,0,0,0,0,
64,4042.05,4161.03,4053.85,3836.92,4333.33,4130.77,4552.82,4522.56,4269.74,3898.97,4197.95,4577.95,4361.54,4604.1,1690,1711,3.695,0,0,0,0,
65,4054.36,4183.08,4061.54,3850.77,4365.64,4130.26,4554.36,4524.62,4277.95,3908.21,4209.23,4591.28,4377.44,4614.36,1689,1711,3.703,0,0,0,0,
66,4056.41,4183.59,4062.05,3867.18,4372.31,4128.72,4554.36,4530.26,4284.1,3914.87,4211.79,4593.85,4384.1,4618.97,1690,1711,3.71,0,0,0,0,
67,4052.31,4165.13,4061.54,3864.1,4353.33,4127.69,4554.87,4530.77,4284.1,3912.82,4204.62,4589.23,4372.31,4612.82,1688,1712,3.718,0,0,0,0,
68,4049.74,4164.1,4061.03,3854.87,4354.87,4120,4550.77,4525.64,4275.9,3905.64,4200.51,4588.72,4363.59,4608.21,1689,1710,3.726,0,0,0,0,
69,4044.1,4175.38,4055.9,3844.62,4358.46,4119.49,4542.56,4517.44,4266.67,3898.46,4194.36,4582.05,4363.59,4605.13,1688,1710,3.734,0,0,0,0,
70,4038.97,4171.28,4049.74,3839.49,4343.59,4125.13,4538.46,4508.21,4258.97,3887.18,4182.05,4569.74,4356.41,4600.51,1690,1709,3.742,0,0,0,0,
71,4035.9,4166.67,4045.64,3852.31,4339.49,4128.21,4540.51,4503.59,4250.26,3877.95,4177.95,4565.64,4348.72,4598.97,1688,1708,3.75,0,0,0,0,
72,4034.87,4169.23,4044.62,3844.62,4354.87,4124.62,4541.54,4507.18,4249.74,3881.54,4183.59,4569.23,4350.26,4599.49,1690,1709,3.758,0,0,0,0,
73,4039.49,4169.23,4048.72,3822.56,4358.97,4118.46,4541.03,4508.72,4260.51,3891.79,4187.69,4575.9,4353.85,4598.97,1691,1707,3.765,0,0,0,0,
74,4038.97,4172.82,4045.64,3829.23,4337.44,4122.56,4539.49,4507.69,4268.21,3894.36,4186.15,4576.41,4354.87,4602.05,1690,1708,3.772,0,0,0,0,
75,4034.36,4184.1,4042.05,3862.05,4352.82,4134.36,4542.56,4516.41,4267.18,3891.28,4189.74,4576.41,4360.51,4605.64,1691,1708,3.781,0,0,0,0,
76,4046.67,4189.23,4053.33,3881.03,4386.15,4137.95,4550.77,4524.1,4269.74,3900,4202.05,4584.1,4374.36,4604.62,1691,1709,3.789,0,0,0,0,
77,4061.03,4187.69,4063.59,3872.82,4365.13,4138.46,4556.41,4522.56,4276.92,3910.26,4207.69,4590.77,4381.03,4610.77,1692,1709,3.796,0,0,0,0,
78,4056.41,4200.51,4062.05,3864.62,4363.59,4141.54,4557.44,4525.64,4285.64,3913.85,4205.13,4593.33,4380,4627.18,1690,1710,3.805,0,0,0,0,
79,4046.67,4206.67,4057.95,3857.44,4382.05,4136.41,4552.82,4528.72,4286.67,3910.26,4204.62,4590.77,4376.92,4627.18,1691,1709,3.812,0,0,0,0,
80,4042.05,4186.67,4055.38,3847.69,4347.18,4133.85,4547.18,4520.51,4276.92,3908.21,4201.03,4583.08,4370.26,4610.77,1689,1710,3.82,0,0,0,0,
81,4048.72,4173.85,4058.46,3852.31,4337.95,4133.33,4550.26,4518.46,4276.41,3912.31,4201.54,4583.59,4372.82,4614.87,1691,1710,3.828,0,0,0,0,
82,4054.87,4188.72,4063.08,3865.64,4372.31,4127.69,4554.36,4526.15,4281.03,3906.15,4207.18,4590.26,4377.44,4621.03,1689,1710,3.836,0,0,0,0,
83,4045.13,4204.62,4051.79,3865.64,4362.05,4130.77,4545.64,4515.9,4271.28,3892.31,4197.95,4583.59,4365.64,4602.05,1689,1711,3.843,0,0,0,0,
84,4035.9,4200.51,4042.56,3858.46,4347.18,4138.46,4538.46,4503.59,4260.51,3891.28,4189.74,4574.87,4355.9,4595.38,1689,1709,3.851,0,0,0,0,
85,4043.59,4197.95,4053.85,3861.03,4371.28,4133.85,4544.62,4513.85,4264.62,3898.46,4199.49,4582.05,4365.64,4610.77,1690,1710,3.858,0,0,0,0,
86,4050.26,4208.72,4062.05,3863.59,4374.87,4135.9,4548.21,4517.44,4266.67,3896.92,4201.54,4587.18,4367.18,4610.26,1691,1708,3.867,0,0,0,0,
87,4037.44,4218.97,4049.74,3866.67,4366.15,4143.59,4543.59,4507.69,4262.56,3891.79,4188.21,4576.92,4352.82,4596.41,1690,1708,3.874,0,0,0,0,
88,4030.26,4195.9,4048.21,3860,4366.67,4128.21,4537.44,4510.77,4264.62,3892.31,4182.56,4572.31,4348.21,4598.46,1691,1708,3.882,0,0,0,0,
89,4042.56,4170.77,4062.56,3857.95,4364.1,4122.05,4537.95,4521.03,4267.18,3892.82,4186.15,4578.46,4351.28,4602.56,1691,1709,3.891,0,0,0,0,
90,4048.72,4209.74,4061.54,3874.36,4373.33,4142.05,4552.31,4524.1,4270.26,3897.44,4188.21,4577.95,4353.85,4601.03,1692,1708,3.897,0,0,0,0,
91,4035.9,4232.82,4055.38,3867.18,4356.92,4137.95,4553.33,4515.38,4264.62,3889.74,4185.13,4568.21,4347.18,4597.95,1691,1709,3.905,0,0,0,0,
92,4031.79,4196.92,4058.97,3850.26,4324.1,4117.95,4540,4504.1,4252.31,3878.97,4178.46,4567.69,4341.03,4594.36,1693,1711,3.914,0,0,0,0,
93,4044.62,4202.05,4061.54,3856.41,4354.36,4128.72,4543.59,4510.26,4263.59,3895.38,4190.26,4580.51,4361.54,4604.1,1691,1710,3.922,0,0,0,0,
94,4052.31,4243.08,4061.54,3871.28,4395.9,4145.13,4552.82,4525.64,4285.13,3916.41,4209.23,4590.26,4384.62,4620,1691,1711,3.933,0,0,0,0,
95,4051.28,4245.13,4063.08,3876.41,4381.03,4135.38,4542.05,4522.56,4277.95,3904.1,4206.67,4587.18,4377.95,4619.49,1692,1710,3.937,0,0,0,0,
96,4050.77,4226.67,4062.05,3873.85,4367.18,4132.82,4535.9,4514.36,4257.95,3890.26,4195.9,4583.08,4366.67,4612.31,1691,1711,3.945,0,0,0,0,
97,4047.69,4219.49,4066.15,3848.72,4378.97,4145.13,4548.21,4519.49,4267.69,3898.97,4202.05,4587.69,4370.77,4616.41,1691,1709,3.953,0,0,0,0,
98,4041.03,4224.62,4067.18,3842.56,4368.72,4144.62,4551.28,4522.56,4280.51,3902.56,4205.13,4588.21,4370.26,4615.9,1689,1708,3.961,0,0,0,0,
99,4046.67,4219.49,4058.46,3875.9,4335.38,4137.44,4544.62,4518.97,4268.72,3892.82,4188.72,4581.54,4356.92,4601.03,1691,1708,3.969,0,0,0,0,
100,4063.59,4193.33,4069.74,3858.97,4326.15,4133.33,4548.21,4517.95,4261.03,3889.74,4183.59,4584.1,4350.26,4598.97,1690,1708,3.977,0,0,0,0,
101,4056.92,4225.13,4081.54,3835.9,4368.72,4135.38,4556.41,4530.77,4276.41,3903.08,4208.72,4597.44,4367.69,4618.46,1690,1710,3.984,0,0,0,0,
102,4036.92,4284.1,4064.1,3870.26,4397.44,4140,4556.92,4540,4287.18,3914.36,4223.59,4604.62,4384.1,4628.21,1690,1710,3.992,0,0,0,0,
103,4038.46,4271.79,4056.41,3880.51,4366.67,4136.41,4552.31,4528.21,4277.44,3908.72,4203.59,4598.46,4368.72,4616.92,1689,1711,4,0,0,0,0,
104,4051.79,4259.49,4069.74,3858.46,4348.21,4142.05,4552.82,4519.49,4274.36,3904.62,4197.44,4598.46,4363.59,4612.82,1689,1712,4.008,0,0,0,0,
105,4057.95,4265.13,4073.85,3875.9,4368.72,4154.87,4559.49,4527.69,4283.59,3913.33,4215.9,4604.62,4384.1,4623.59,1689,1713,4.016,0,0,0,0,
106,4055.38,4242.05,4066.15,3887.69,4365.64,4145.64,4554.87,4530.26,4284.62,3914.87,4214.36,4597.44,4382.05,4623.59,1689,1711,4.023,0,0,0,0,
107,4042.56,4252.82,4062.56,3853.85,4337.44,4128.72,4540,4512.82,4268.72,3896.92,4186.15,4582.56,4354.87,4606.15,1688,1712,4.031,0,0,0,0,
108,4024.62,4303.59,4060,3846.67,4349.23,4140,4540.51,4506.15,4262.56,3892.82,4183.59,4580,4353.85,4600,1689,1710,4.039,0,0,0,0,
109,4025.13,4297.95,4064.1,3847.69,4384.62,4151.79,4555.38,4524.1,4285.13,3914.87,4212.82,4589.74,4377.44,4614.87,1688,1710,4.047,0,0,0,0,
110,4039.49,4245.13,4069.74,3843.59,4365.13,4145.64,4554.87,4528.72,4289.23,3913.85,4212.82,4591.28,4375.9,4619.49,1689,1710,4.055,0,0,0,0,
111,4035.38,4240.51,4064.1,3873.85,4329.74,4148.72,4547.18,4508.72,4263.08,3888.72,4186.15,4580,4351.28,4600,1689,1708,4.063,0,0,0,0,
112,4021.03,4298.46,4052.31,3906.67,4356.92,4155.9,4550.77,4506.15,4260.51,3892.82,4190.77,4578.97,4355.9,4595.38,1688,1708,4.07,0,0,0,0,
113,4036.92,4331.28,4059.49,3885.13,4389.23,4149.23,4554.87,4524.62,4283.08,3916.41,4220.51,4597.95,4384.62,4627.18,1688,1707,4.078,0,0,0,0,
114,4065.64,4297.95,4087.69,3834.36,4369.23,4141.54,4558.46,4531.28,4288.72,3920.51,4227.69,4613.85,4396.92,4645.13,1688,1707,4.086,0,0,0,0,
115,4053.33,4279.49,4084.62,3847.18,4341.54,4137.95,4553.33,4517.44,4271.79,3905.13,4208.72,4600.51,4377.95,4619.49,1687,1707,4.094,0,0,0,0,
116,4032.82,4287.18,4055.9,3886.67,4320,4138.46,4541.03,4502.56,4256.41,3886.67,4185.13,4580.51,4345.64,4597.95,1687,1708,4.102,0,0,0,0,
117,4042.05,4302.56,4063.59,3872.31,4329.74,4150.26,4550.77,4511.79,4271.28,3895.38,4191.28,4586.15,4354.87,4611.28,1685,1708,4.11,0,0,0,0,
118,4049.23,4347.18,4076.92,3871.28,4370.77,4160,4565.13,4530.26,4292.31,3916.41,4213.85,4601.54,4387.18,4625.13,1685,1708,4.117,0,0,0,0,
119,4047.69,4338.46,4063.08,3911.28,4364.1,4154.87,4556.41,4525.13,4283.59,3906.67,4207.18,4600,4374.87,4627.18,1683,1709,4.125,0,0,0,0,
120,4064.1,4307.69,4069.23,3904.62,4337.95,4154.87,4553.33,4521.03,4285.13,3900,4203.59,4604.1,4363.08,4636.92,1683,1709,4.132,0,0,0,0,
121,4063.08,4319.49,4081.03,3863.08,4337.95,4151.28,4560,4529.23,4297.44,3909.74,4207.69,4602.05,4381.54,4628.21,1680,1709,4.141,0,0,0,0,
122,4025.64,4336.92,4055.38,3874.87,4332.82,4138.46,4546.67,4513.33,4273.33,3894.36,4189.74,4573.85,4370.77,4597.95,1680,1709,4.149,0,0,0,0,
123,4024.62,4351.28,4044.1,3906.67,4334.87,4149.74,4541.03,4498.97,4256.41,3882.56,4183.59,4566.15,4358.46,4601.03,1678,1707,4.156,0,0,0,0,
124,4056.92,4351.79,4061.54,3887.69,4355.9,4170.26,4555.9,4508.72,4276.41,3895.9,4204.62,4586.15,4383.08,4624.62,1677,1708,4.164,0,0,0,0,
125,4038.97,4340,4055.38,3847.69,4352.82,4161.03,4554.36,4513.33,4280.51,3897.44,4207.18,4587.69,4380.51,4621.54,1674,1708,4.172,0,0,0,0,
126,4010.77,4369.23,4036.92,3889.23,4336.41,4151.79,4548.21,4511.28,4270.77,3894.87,4193.85,4577.95,4364.1,4609.23,1671,1710,4.18,0,0,0,0,
127,4034.36,4422.05,4042.56,3951.79,4339.49,4161.03,4555.9,4523.08,4286.67,3906.67,4200.51,4583.59,4391.28,4614.36,1670,1710,4.187,0,0,0,0,
128,4050.26,4430.77,4055.9,3945.64,4353.33,4160.51,4558.97,4538.97,4306.15,3913.33,4215.9,4588.72,4412.82,4623.08,1667,1710,4.196,0,0,0,0,
0,4027.69,4433.85,4048.72,3942.05,4363.59,4152.31,4554.87,4540.51,4303.59,3913.85,4220,4585.64,4405.64,4619.49,1664,1710,4.202,0,0,0,0,
1,4025.13,4420,4041.54,3938.97,4326.67,4152.31,4556.92,4526.15,4285.64,3904.1,4204.62,4578.46,4397.44,4606.15,1662,1709,4.211,0,0,0,0,
2,4029.23,4406.15,4045.13,3911.79,4296.92,4152.31,4556.92,4522.05,4280.51,3891.79,4195.9,4569.74,4402.56,4597.44,1659,1710,4.219,0,0,0,0,
3,4013.85,4444.62,4039.49,3931.79,4344.1,4153.85,4553.85,4533.33,4296.41,3904.1,4212.82,4572.31,4418.46,4603.08,1655,1710,4.227,0,0,0,0,
4,4021.03,4425.64,4044.1,3958.97,4373.85,4156.92,4555.9,4532.82,4299.49,3911.79,4217.95,4583.08,4427.18,4615.38,1653,1711,4.235,0,0,0,0,
5,4037.95,4404.62,4051.79,3936.92,4346.15,4154.36,4556.41,4521.54,4283.08,3897.44,4204.62,4585.13,4415.38,4617.95,1650,1710,4.242,0,0,0,0,
6,4023.08,4480.51,4032.82,3967.69,4332.31,4149.23,4549.74,4515.9,4273.33,3886.15,4193.33,4574.36,4400.51,4604.1,1647,1713,4.25,0,0,0,0,
7,4016.92,4507.69,4030.26,3988.21,4353.85,4152.82,4549.23,4524.1,4286.15,3895.9,4201.03,4581.03,4414.87,4603.08,1645,1713,4.257,0,0,0,0,
8,4037.44,4450.26,4059.49,3928.21,4358.97,4159.49,4558.46,4542.56,4306.67,3910.26,4218.97,4600.51,4445.13,4621.54,1641,1716,4.266,0,0,0,0,
9,4028.21,4428.72,4050.26,3914.87,4321.03,4154.36,4556.92,4535.9,4296.41,3899.49,4210.26,4586.67,4447.69,4616.41,1639,1716,4.274,0,0,0,0,
10,4012.82,4442.56,4031.28,3941.54,4291.79,4148.72,4549.74,4511.79,4264.1,3874.87,4186.15,4560,4423.59,4606.15,1635,1717,4.282,0,0,0,0,
11,4043.08,4453.33,4051.79,3975.9,4327.18,4153.85,4553.33,4513.85,4264.1,3871.28,4189.23,4570.26,4413.85,4626.15,1635,1717,4.289,0,0,0,0,
12,4071.28,4475.38,4060.51,4008.72,4358.46,4156.41,4556.92,4526.67,4281.54,3882.05,4206.15,4590.77,4434.87,4647.69,1633,1714,4.297,0,0,0,0,
13,4085.13,4502.05,4063.08,3980.51,4347.18,4153.33,4552.82,4521.03,4271.28,3880,4209.74,4591.79,4462.05,4667.69,1632,1714,4.305,0,0,0,0,
14,4121.03,4520.51,4088.72,3932.31,4342.56,4150.26,4547.69,4515.9,4262.56,3877.44,4211.79,4605.64,4456.92,4709.74,1633,1712,4.313,0,0,0,0,
15,4149.23,4524.1,4096.41,3941.54,4305.64,4146.15,4548.72,4509.74,4269.23,3877.95,4211.79,4625.64,4443.08,4745.64,1632,1713,4.32,0,0,0,0,
16,4178.97,4542.56,4095.38,4007.69,4277.44,4142.05,4552.31,4505.13,4269.23,3883.59,4222.05,4632.31,4480.51,4778.97,1632,1713,4.327,0,0,0,0,
17,4238.46,4581.54,4115.9,4072.31,4333.33,4141.03,4547.69,4517.44,4268.72,3896.41,4249.74,4645.64,4526.67,4827.18,1632,1714,4.335,0,0,0,0,
18,4273.33,4602.56,4134.87,4046.67,4365.64,4144.1,4542.05,4523.59,4273.85,3895.38,4256.41,4662.56,4522.05,4863.59,1632,1712,4.343,0,0,0,0,
19,4268.72,4625.13,4138.97,3994.87,4335.9,4146.67,4547.69,4519.49,4282.05,3892.82,4249.23,4667.69,4508.21,4874.87,1631,1714,4.352,0,0,0,0,
20,4270.26,4635.38,4140,4046.15,4331.28,4146.15,4557.95,4525.13,4287.69,3898.46,4254.87,4669.23,4513.85,4870.77,1632,1713,4.36,0,0,0,0,
21,4257.44,4597.44,4129.74,4055.38,4337.95,4138.97,4551.28,4523.08,4275.38,3885.13,4242.56,4657.95,4503.08,4846.15,1631,1713,4.367,0,0,0,0,
22,4226.15,4578.97,4115.38,3984.1,4327.18,4138.97,4543.08,4507.18,4259.49,3866.67,4223.59,4635.38,4484.62,4818.97,1631,1714,4.375,0,0,0,0,
23,4209.23,4602.56,4098.97,4033.85,4332.82,4148.21,4549.74,4503.08,4259.49,3871.28,4224.62,4629.23,4469.23,4803.59,1631,1715,4.382,0,0,0,0,
24,4187.18,4606.15,4083.59,4071.28,4334.87,4154.36,4556.41,4513.33,4264.62,3878.97,4219.49,4627.69,4460.51,4776.41,1632,1716,4.39,0,0,0,0,
25,4164.62,4588.72,4099.49,3965.64,4335.9,4152.82,4556.41,4524.62,4274.87,3880.51,4214.87,4619.49,4474.87,4747.18,1633,1715,4.399,0,0,0,0,
26,4160.51,4588.72,4109.23,3960.51,4345.13,4144.62,4549.23,4526.15,4284.1,3882.05,4224.1,4622.05,4481.54,4737.44,1634,1717,4.407,0,0,0,0,
27,4141.54,4581.54,4076.92,4067.18,4333.33,4135.38,4541.54,4511.28,4269.74,3877.95,4214.87,4613.33,4461.03,4716.41,1636,1715,4.415,0,0,0,0,
28,4104.62,4572.82,4055.38,4068.21,4322.56,4138.46,4537.95,4504.62,4260,3873.85,4196.41,4589.23,4444.62,4673.33,1638,1715,4.421,0,0,0,0,
29,4090.77,4559.49,4067.18,3998.46,4337.95,4148.21,4540.51,4516.41,4275.9,3877.95,4200.51,4582.56,4447.18,4648.21,1642,1714,4.43,0,0,0,0,
30,4087.69,4541.54,4069.23,3983.59,4354.87,4146.67,4544.1,4524.62,4282.56,3882.05,4206.15,4587.18,4448.72,4647.18,1644,1715,4.437,0,0,0,0,
31,4074.36,4544.1,4067.69,3971.79,4338.46,4146.15,4549.74,4518.97,4271.79,3883.08,4202.05,4591.79,4436.41,4649.74,1649,1714,4.445,0,0,0,0,
32,4067.69,4561.03,4077.44,3972.31,4313.85,4154.87,4554.87,4514.87,4266.15,3878.46,4201.54,4599.49,4422.56,4650.77,1650,1715,4.454,0,0,0,0,
33,4068.21,4552.31,4068.72,4029.23,4329.74,4153.85,4550.26,4517.44,4271.79,3878.46,4200.51,4594.36,4430.77,4637.95,1654,1717,4.46,0,0,0,0,
34,4062.56,4514.87,4057.95,4033.85,4355.38,4150.26,4549.23,4522.56,4281.54,3890.77,4198.97,4585.13,4449.23,4618.46,1657,1717,4.468,0,0,0,0,
35,4050.26,4515.9,4055.9,3999.49,4341.03,4153.85,4553.85,4521.54,4280.51,3891.28,4198.46,4584.1,4440,4608.72,1659,1720,4.476,0,0,0,0,
36,4042.05,4528.72,4051.79,4006.67,4324.62,4154.87,4552.31,4521.54,4270.26,3880.51,4199.49,4577.44,4426.67,4601.54,1663,1719,4.485,0,0,0,0,
37,4040.51,4517.95,4057.95,3998.46,4323.59,4151.79,4552.82,4521.54,4265.64,3880,4198.46,4568.72,4430.26,4596.92,1663,1720,4.493,0,0,0,0,
38,4032.82,4514.36,4057.95,3964.62,4322.05,4148.21,4553.85,4509.74,4265.64,3878.46,4184.62,4569.74,4411.28,4600.51,1665,1720,4.501,0,0,0,0,
39,4027.69,4491.79,4045.64,3970.26,4331.28,4146.67,4552.82,4508.21,4262.05,3873.33,4180,4568.21,4397.95,4594.87,1667,1718,4.508,0,0,0,0,
40,4028.21,4455.9,4042.56,3982.05,4321.54,4148.21,4557.44,4521.54,4264.62,3880.51,4186.15,4561.03,4410.26,4574.87,1669,1717,4.516,0,0,0,0,
41,4008.72,4475.38,4029.74,3977.95,4301.54,4148.21,4554.36,4519.49,4268.72,3881.03,4173.33,4552.31,4395.38,4556.92,1671,1715,4.524,0,0,0,0,
42,3979.49,4532.82,4000,4002.05,4324.62,4149.74,4538.97,4502.56,4262.05,3864.1,4155.38,4535.9,4370.77,4549.23,1674,1714,4.532,0,0,0,0,
43,3991.79,4512.82,4010.26,4000,4356.41,4154.36,4541.03,4506.15,4263.08,3870.26,4174.36,4538.46,4392.31,4552.31,1679,1713,4.54,0,0,0,0,
44,4018.97,4463.59,4047.69,3946.67,4344.1,4156.41,4556.92,4524.1,4282.05,3896.92,4203.08,4565.13,4423.59,4567.69,1681,1711,4.547,0,0,0,0,
45,4015.9,4465.64,4053.33,3930.77,4325.13,4153.33,4557.44,4527.69,4290.26,3904.1,4203.59,4582.05,4419.49,4592.31,1683,1713,4.555,0,0,0,0,
46,4016.41,4479.49,4040.51,4004.62,4335.9,4151.79,4550.26,4523.59,4281.54,3895.38,4196.41,4581.03,4405.64,4598.46,1684,1712,4.563,0,0,0,0,
47,4025.64,4485.64,4039.49,4041.54,4346.67,4155.38,4551.28,4523.59,4280,3896.92,4198.97,4576.92,4409.23,4579.49,1684,1712,4.571,0,0,0,0,
48,4013.33,4491.79,4038.46,3982.05,4337.95,4155.38,4552.31,4524.1,4283.59,3899.49,4191.79,4569.23,4412.82,4569.74,1686,1712,4.579,0,0,0,0,
49,4000.51,4489.23,4024.1,3968.72,4329.23,4150.77,4552.31,4522.56,4280.51,3894.87,4180.51,4557.95,4406.67,4570.77,1686,1713,4.586,0,0,0,0,
50,4003.59,4467.18,4022.05,3992.31,4342.05,4152.31,4556.41,4523.59,4280,3896.41,4188.21,4553.85,4409.74,4561.54,1688,1712,4.594,0,0,0,0,
51,4002.56,4451.28,4034.87,3967.69,4337.95,4154.87,4556.41,4523.08,4279.49,3896.92,4198.97,4560,4414.87,4564.62,1687,1711,4.602,0,0,0,0,
52,4003.08,4456.92,4043.59,3951.28,4312.31,4147.69,4554.36,4519.49,4273.85,3891.79,4187.69,4571.28,4397.44,4585.64,1689,1711,4.61,0,0,0,0,
53,4007.69,4478.46,4036.41,3985.13,4321.54,4152.31,4554.87,4519.49,4274.87,3890.26,4175.9,4574.36,4387.18,4577.95,1689,1709,4.618,0,0,0,0,
54,4000,4492.31,4024.62,4005.64,4349.23,4167.18,4556.41,4520,4280,3893.85,4188.21,4564.62,4405.64,4554.36,1689,1710,4.626,0,0,0,0,
55,3994.36,4469.74,4028.21,3991.79,4356.92,4165.13,4556.92,4524.62,4282.05,3898.97,4201.03,4563.59,4411.28,4561.54,1691,1708,4.632,0,0,0,0,
56,4003.59,4449.23,4042.56,3977.44,4355.9,4152.82,4557.95,4526.67,4283.08,3896.92,4189.74,4571.28,4402.05,4581.54,1690,1709,4.641,0,0,0,0,
57,4015.9,4456.92,4050.26,3973.33,4348.72,4151.28,4556.41,4523.08,4283.08,3890.26,4183.08,4574.36,4410.26,4585.64,1691,1710,4.649,0,0,0,0,
58,4020,4460.51,4044.1,3986.15,4341.03,4153.85,4554.87,4530.77,4289.23,3899.49,4198.46,4574.36,4419.49,4581.54,1692,1710,4.657,0,0,0,0,
59,4019.49,4446.67,4040.51,4002.05,4341.03,4154.36,4563.08,4541.54,4295.38,3915.9,4208.72,4582.56,4409.74,4583.59,1692,1710,4.665,0,0,0,0,
60,4020.51,4445.13,4046.15,3988.21,4333.33,4155.38,4568.21,4533.33,4287.69,3909.74,4200.51,4586.67,4403.08,4585.13,1692,1711,4.672,0,0,0,0,
61,4023.08,4445.13,4054.87,3947.18,4326.15,4152.82,4561.54,4521.54,4278.97,3895.38,4196.41,4578.46,4411.28,4577.44,1692,1711,4.68,0,0,0,0,
62,4017.95,4441.54,4047.18,3960.51,4342.56,4150.77,4554.36,4523.59,4282.56,3896.92,4202.56,4568.72,4417.44,4567.18,1691,1711,4.687,0,0,0,0,
63,4010.26,4454.87,4035.38,4006.67,4353.85,4153.33,4554.87,4524.62,4280.51,3900,4198.46,4570.26,4414.36,4573.33,1690,1714,4.696,0,0,0,0,
64,4017.95,4439.49,4047.18,3996.41,4352.82,4153.85,4556.41,4521.03,4276.41,3896.41,4189.23,4577.95,4411.79,4586.15,1690,1712,4.703,0,0,0,0,
65,4028.72,4404.1,4050.26,3991.79,4363.08,4157.44,4556.92,4521.03,4280.51,3896.41,4194.87,4575.9,4409.74,4584.62,1689,1712,4.712,0,0,0,0,
66,4020,4422.05,4036.41,4000.51,4365.64,4168.21,4557.95,4522.05,4281.54,3896.92,4202.56,4569.74,4407.69,4584.1,1690,1709,4.72,0,0,0,0,
67,4006.15,4451.28,4040,3951.28,4350.77,4169.23,4556.92,4521.54,4276.92,3892.82,4192.31,4570.77,4407.69,4586.15,1689,1710,4.727,0,0,0,0,
68,4012.82,4431.79,4053.33,3923.08,4347.69,4154.87,4555.9,4520,4272.82,3887.18,4181.03,4569.23,4410.77,4570.77,1690,1710,4.735,0,0,0,0,
69,4028.72,4414.36,4056.92,3988.72,4352.31,4155.38,4561.54,4523.08,4274.87,3891.28,4191.79,4567.18,4419.49,4564.1,1690,1709,4.743,0,0,0,0,
70,4035.38,4422.05,4058.97,4037.44,4357.95,4167.69,4570.77,4537.95,4290.26,3906.15,4210.77,4588.21,4420,4594.36,1691,1710,4.751,0,0,0,0,
71,4038.97,4409.74,4065.64,3988.72,4363.59,4163.08,4571.79,4544.1,4296.41,3912.82,4212.31,4609.74,4410.77,4612.31,1691,1711,4.759,0,0,0,0,
72,4040.51,4403.59,4064.1,3956.41,4363.08,4150.26,4565.13,4529.23,4281.03,3906.15,4198.46,4596.92,4415.9,4590.26,1691,1712,4.766,0,0,0,0,
73,4034.87,4426.67,4055.38,3994.87,4356.41,4151.79,4563.59,4522.56,4277.44,3906.15,4201.54,4583.08,4429.74,4581.03,1690,1712,4.773,0,0,0,0,
74,4035.38,4432.82,4055.9,3998.97,4351.79,4162.05,4568.72,4535.9,4296.41,3914.87,4220.51,4592.82,4429.23,4598.46,1690,1713,4.781,0,0,0,0,
75,4044.1,4403.59,4065.64,3958.97,4356.41,4164.62,4572.31,4542.56,4307.18,3918.46,4222.05,4596.92,4427.69,4603.59,1690,1712,4.79,0,0,0,0,
76,4033.85,4390.26,4058.97,3971.28,4360,4165.13,4570.77,4535.9,4300.51,3913.33,4209.74,4586.67,4431.79,4589.74,1689,1714,4.797,0,0,0,0,
77,4017.95,4404.62,4050.26,3982.56,4352.82,4164.1,4569.74,4534.87,4295.38,3910.26,4207.18,4584.1,4424.1,4582.05,1689,1712,4.805,0,0,0,0,
78,4024.1,4406.67,4061.54,3959.49,4355.38,4164.1,4571.79,4542.05,4296.92,3914.87,4208.72,4590.77,4415.9,4586.15,1687,1711,4.812,0,0,0,0,
79,4030.26,4388.21,4060.51,3977.95,4363.08,4168.21,4572.31,4543.59,4296.41,3910.26,4202.56,4588.21,4415.9,4585.13,1688,1711,4.82,0,0,0,0,
80,4031.28,4360.51,4048.72,4003.08,4355.38,4165.13,4570.77,4541.03,4294.36,3894.87,4199.49,4582.05,4412.82,4584.62,1688,1709,4.829,0,0,0,0,
81,4045.13,4344.1,4063.08,3983.59,4350.77,4160.51,4571.28,4544.1,4296.41,3896.92,4204.1,4592.82,4404.1,4600,1688,1709,4.837,0,0,0,0,
82,4049.23,4350.77,4075.38,3952.82,4351.28,4162.05,4573.85,4553.33,4300.51,3910.26,4206.15,4600.51,4402.56,4604.62,1688,1707,4.845,0,0,0,0,
83,4031.28,4366.67,4061.03,3947.69,4353.85,4169.74,4574.87,4554.36,4301.54,3910.26,4201.54,4589.74,4413.85,4586.15,1688,1708,4.851,0,0,0,0,
84,4029.74,4373.85,4055.9,3960.51,4368.21,4169.74,4572.82,4544.1,4301.03,3909.23,4201.54,4585.13,4418.46,4582.05,1688,1709,4.859,0,0,0,0,
85,4043.08,4354.36,4066.67,3950.26,4360,4161.03,4570.77,4538.46,4292.82,3908.21,4201.03,4588.72,4415.38,4592.31,1689,1711,4.867,0,0,0,0,
86,4047.18,4348.21,4068.72,3952.31,4343.08,4162.56,4571.79,4540,4287.69,3902.56,4207.18,4589.23,4420.51,4594.36,1689,1709,4.875,0,0,0,0,
87,4047.18,4361.03,4064.62,3981.03,4352.31,4167.69,4573.33,4539.49,4292.31,3904.62,4214.36,4590.77,4426.67,4591.79,1688,1711,4.883,0,0,0,0,
88,4043.59,4344.62,4064.62,3954.36,4352.82,4160.51,4572.82,4536.92,4293.85,3911.28,4207.69,4586.67,4430.26,4581.54,1690,1710,4.891,0,0,0,0,
89,4045.64,4320,4066.67,3923.08,4349.74,4154.36,4571.79,4538.46,4295.9,3907.69,4200.51,4586.15,4425.13,4592.82,1688,1710,4.899,0,0,0,0,
90,4057.44,4327.18,4067.18,3959.49,4365.64,4168.21,4573.33,4543.08,4305.13,3908.21,4203.59,4600.51,4409.23,4623.08,1690,1710,4.907,0,0,0,0,
91,4052.31,4337.44,4062.05,3970.77,4364.62,4173.85,4573.33,4544.62,4304.62,3914.36,4207.18,4598.97,4412.82,4615.38,1689,1709,4.914,0,0,0,0,
92,4031.28,4341.54,4051.79,3940.51,4356.92,4164.62,4568.72,4539.49,4290.26,3903.59,4198.46,4581.03,4421.54,4589.23,1689,1711,4.923,0,0,0,0,
93,4043.08,4328.72,4065.64,3928.72,4366.67,4167.18,4572.31,4540.51,4292.82,3898.46,4193.33,4592.31,4410.77,4597.44,1689,1710,4.93,0,0,0,0,
94,4070.26,4296.92,4088.72,3910.77,4343.59,4171.28,4577.95,4547.69,4303.08,3909.23,4203.59,4608.21,4412.82,4608.21,1688,1710,4.938,0,0,0,0,
95,4058.46,4291.79,4075.38,3908.72,4307.69,4158.46,4570.77,4541.03,4289.23,3899.49,4202.56,4590.77,4417.44,4598.46,1688,1710,4.945,0,0,0,0,
96,4045.64,4292.82,4059.49,3946.67,4333.33,4148.72,4564.1,4533.33,4282.05,3887.18,4189.23,4586.15,4403.59,4604.1,1688,1710,4.954,0,0,0,0,
97,4056.92,4302.05,4071.28,3956.92,4378.97,4157.44,4570.26,4538.97,4300,3906.67,4200.51,4599.49,4415.38,4608.21,1688,1710,4.962,0,0,0,0,
98,4055.9,4356.41,4078.46,3902.05,4375.38,4169.74,4574.36,4542.56,4306.15,3921.03,4218.97,4598.97,4434.36,4597.95,1687,1710,4.969,0,0,0,0,
99,4061.54,4330.26,4082.56,3870.77,4343.08,4170.77,4571.79,4534.87,4292.31,3901.54,4206.67,4601.03,4409.74,4611.79,1687,1710,4.977,0,0,0,0,
100,4080.51,4220,4091.28,3915.38,4330.77,4163.08,4571.28,4532.31,4289.23,3896.41,4193.33,4608.21,4394.36,4629.74,1688,1712,4.985,0,0,0,0,
101,4060.51,4268.72,4071.79,3953.85,4342.56,4161.03,4572.31,4540,4303.08,3912.82,4204.1,4593.85,4421.54,4605.13,1688,1711,4.992,0,0,0,0,
102,4025.64,4404.1,4048.72,3921.03,4350.77,4167.69,4573.85,4548.21,4313.85,3917.95,4212.31,4577.44,4438.46,4573.85,1688,1712,5,0,0,0,0,
103,4041.03,4362.05,4058.46,3912.31,4348.21,4170.77,4572.31,4545.64,4312.31,3909.74,4205.13,4584.62,4424.1,4589.23,1688,1711,5.008,0,0,0,0,
104,4056.92,4251.79,4060.51,3935.9,4352.31,4167.18,4566.15,4543.59,4304.62,3905.13,4199.49,4587.18,4412.82,4605.64,1688,1712,5.017,0,0,0,0,
105,4046.15,4253.85,4059.49,3904.1,4363.59,4169.23,4568.72,4553.33,4308.72,3909.74,4204.62,4588.72,4412.31,4599.49,1688,1710,5.025,0,0,0,0,
106,4045.13,4309.23,4071.79,3885.13,4350.26,4175.38,4574.87,4553.85,4315.9,3915.38,4202.56,4597.95,4413.85,4599.49,1688,1712,5.032,0,0,0,0,
107,4036.92,4335.38,4062.56,3909.74,4321.03,4164.1,4570.77,4538.97,4302.56,3910.26,4188.72,4590.77,4404.1,4586.67,1690,1712,5.04,0,0,0,0,
108,4023.08,4321.54,4044.62,3918.46,4329.74,4151.79,4566.15,4531.79,4288.72,3896.92,4190.26,4578.97,4395.38,4583.59,1687,1713,5.048,0,0,0,0,
109,4040,4295.9,4058.46,3916.92,4366.15,4160,4569.74,4540.51,4301.54,3904.62,4210.26,4586.67,4420.51,4610.77,1688,1714,5.055,0,0,0,0,
110,4047.18,4304.1,4066.15,3915.9,4351.79,4164.1,4571.28,4540,4307.69,3912.82,4211.28,4587.18,4443.59,4602.05,1686,1713,5.064,0,0,0,0,
111,4033.85,4314.87,4052.31,3913.33,4316.92,4161.03,4571.28,4527.69,4289.23,3900.51,4195.9,4574.36,4423.59,4567.18,1685,1714,5.07,0,0,0,0,
112,4041.54,4282.05,4057.95,3890.26,4332.82,4157.44,4566.15,4520,4275.38,3888.21,4184.1,4578.97,4387.18,4587.18,1685,1714,5.079,0,0,0,0,
113,4048.21,4284.1,4067.69,3875.9,4356.92,4157.44,4559.49,4524.62,4279.49,3888.72,4186.15,4588.21,4390.26,4617.95,1684,1713,5.086,0,0,0,0,
114,4039.49,4319.49,4061.03,3927.18,4351.79,4164.1,4564.62,4534.36,4292.31,3902.56,4200,4584.1,4423.08,4601.54,1684,1713,5.095,0,0,0,0,
115,4043.08,4308.72,4056.41,3978.97,4352.31,4172.31,4571.28,4540,4303.59,3911.79,4203.59,4585.64,4431.28,4592.82,1683,1714,5.102,0,0,0,0,
116,4042.05,4296.92,4055.9,3900.51,4349.23,4169.74,4567.69,4538.46,4297.95,3901.03,4195.38,4585.13,4410.26,4592.31,1683,1714,5.11,0,0,0,0,
117,4031.79,4316.41,4050.26,3854.36,4338.97,4166.15,4566.67,4535.9,4289.74,3892.31,4196.92,4578.46,4405.64,4588.72,1681,1716,5.118,0,0,0,0,
118,4037.44,4322.05,4054.87,3925.64,4349.23,4167.69,4571.28,4537.95,4296.92,3906.67,4205.64,4587.18,4421.54,4608.72,1681,1716,5.125,0,0,0,0,
119,4050.77,4293.85,4070.77,3924.62,4351.79,4156.92,4571.79,4537.95,4301.54,3913.85,4205.13,4596.92,4424.1,4628.72,1679,1717,5.133,0,0,0,0,
120,4049.74,4293.33,4066.67,3910.26,4348.72,4156.92,4570.26,4537.44,4301.03,3907.18,4203.08,4586.67,4427.69,4614.36,1679,1718,5.141,0,0,0,0,
121,4041.54,4343.59,4049.74,3951.79,4359.49,4170.26,4571.28,4538.97,4304.1,3906.67,4200.51,4580,4423.08,4596.92,1677,1718,5.149,0,0,0,0,
122,4051.79,4343.08,4066.67,3918.97,4351.28,4172.31,4576.41,4541.54,4300,3909.74,4204.62,4596.92,4403.59,4619.49,1676,1720,5.156,0,0,0,0,
123,4068.72,4305.64,4092.31,3876.41,4326.67,4172.31,4582.56,4544.62,4297.95,3910.26,4209.23,4606.67,4410.26,4636.92,1675,1719,5.165,0,0,0,0,
124,4062.05,4308.21,4072.82,3942.56,4333.85,4165.64,4570.77,4534.36,4294.87,3901.54,4192.31,4590.26,4426.67,4615.38,1672,1720,5.172,0,0,0,0,
125,4058.46,4346.67,4051.79,3974.87,4360,4153.85,4554.87,4524.1,4290.26,3900,4192.31,4586.67,4431.79,4619.49,1671,1720,5.18,0,0,0,0,
126,4100.51,4350.77,4086.67,3904.1,4352.82,4150.77,4565.64,4534.87,4297.95,3912.31,4226.15,4613.33,4433.85,4676.41,1670,1721,5.188,0,0,0,0,
127,4147.18,4354.36,4118.46,3894.87,4335.38,4145.64,4573.33,4540,4296.41,3912.31,4235.9,4625.64,4443.08,4706.67,1670,1721,5.197,0,0,0,0,
128,4175.9,4399.49,4114.36,3952.31,4348.72,4130.77,4560,4524.62,4283.59,3907.69,4226.67,4629.23,4461.54,4727.18,1669,1722,5.204,0,0,0,0,
0,4226.15,4412.82,4131.79,3977.95,4362.05,4130.77,4560,4521.54,4289.74,3910.26,4236.41,4663.59,4461.54,4804.62,1670,1723,5.211,0,0,0,0,
1,4270.77,4407.69,4152.31,3982.56,4336.92,4137.44,4565.13,4527.69,4294.36,3901.03,4231.79,4684.1,4447.18,4850.77,1668,1724,5.22,0,0,0,0,
2,4290.26,4414.36,4148.72,3975.9,4319.49,4128.72,4555.9,4521.54,4278.46,3888.72,4208.72,4665.64,4452.82,4843.08,1669,1726,5.228,0,0,0,0,
3,4309.23,4441.54,4154.36,3973.33,4337.95,4125.13,4550.26,4517.44,4271.79,3893.85,4218.97,4657.95,4473.85,4854.87,1669,1725,5.235,0,0,0,0,
4,4318.97,4490.77,4161.03,4008.72,4358.46,4133.33,4554.36,4523.59,4280,3897.95,4251.79,4669.74,4492.31,4872.82,1670,1726,5.242,0,0,0,0,
5,4311.28,4475.38,4161.03,3998.46,4352.31,4136.41,4550.77,4525.13,4282.05,3894.87,4253.33,4677.44,4481.03,4878.46,1672,1724,5.25,0,0,0,0,
6,4291.28,4413.33,4159.49,3936.41,4326.15,4136.41,4552.31,4520.51,4274.87,3891.28,4220,4670.26,4426.15,4868.21,1674,1724,5.259,0,0,0,0,
7,4264.62,4415.9,4141.03,3960.51,4331.28,4137.44,4560,4526.67,4275.38,3890.77,4202.05,4657.44,4401.54,4842.56,1677,1722,5.266,0,0,0,0,
8,4238.46,4453.33,4128.21,3987.18,4358.46,4141.03,4566.15,4537.95,4282.56,3895.9,4227.69,4649.23,4449.74,4814.36,1679,1720,5.275,0,0,0,0,
9,4224.62,4406.15,4139.49,3926.15,4338.46,4141.03,4569.23,4533.33,4280.51,3896.41,4232.82,4643.08,4458.46,4780,1683,1720,5.282,0,0,0,0,
10,4196.92,4349.23,4121.03,3941.03,4303.08,4137.44,4561.54,4520.51,4272.31,3889.23,4187.18,4632.82,4398.97,4734.87,1685,1721,5.29,0,0,0,0,
11,4161.54,4355.9,4091.28,3962.56,4320.51,4134.87,4557.44,4521.54,4279.49,3893.33,4180.51,4624.1,4393.85,4713.85,1687,1723,5.297,0,0,0,0,
12,4154.87,4371.28,4108.72,3887.69,4353.33,4136.92,4563.08,4532.31,4288.72,3906.15,4224.1,4618.97,4431.28,4709.23,1689,1724,5.305,0,0,0,0,
13,4144.1,4397.95,4109.74,3921.03,4355.38,4136.41,4566.15,4537.44,4290.26,3912.31,4235.38,4614.36,4434.87,4678.97,1692,1727,5.313,0,0,0,0,
14,4124.62,4400.51,4086.67,4005.64,4343.08,4138.46,4566.15,4537.95,4293.33,3911.28,4214.36,4616.41,4429.23,4663.59,1694,1725,5.321,0,0,0,0,
15,4119.49,4356.41,4089.74,3958.46,4330.77,4148.72,4569.74,4534.36,4289.74,3903.08,4204.1,4616.92,4410.77,4687.18,1694,1723,5.33,0,0,0,0,
16,4107.18,4329.23,4085.13,3911.79,4333.85,4152.82,4570.77,4534.87,4290.26,3902.05,4201.03,4602.56,4392.31,4672.31,1697,1720,5.336,0,0,0,0,
17,4085.13,4345.64,4069.74,3919.49,4344.62,4149.74,4568.21,4542.05,4302.05,3911.28,4197.44,4595.9,4410.26,4628.21,1697,1719,5.345,0,0,0,0,
18,4089.74,4349.23,4089.74,3894.36,4335.9,4150.77,4569.74,4538.46,4296.92,3910.26,4198.97,4609.74,4421.03,4639.49,1698,1718,5.352,0,0,0,0,
19,4101.54,4304.62,4103.59,3896.41,4321.54,4150.77,4570.77,4528.72,4275.9,3895.38,4201.54,4607.18,4397.44,4653.85,1698,1718,5.36,0,0,0,0,
20,4067.18,4315.9,4063.08,3952.82,4339.49,4151.28,4565.64,4528.72,4273.33,3888.21,4199.49,4578.46,4391.28,4608.72,1698,1719,5.368,0,0,0,0,
21,4043.08,4372.31,4037.95,3961.54,4369.23,4154.87,4563.08,4540.51,4291.79,3902.05,4192.31,4576.41,4409.74,4580,1697,1718,5.376,0,0,0,0,
22,4070.77,4318.46,4072.82,3885.13,4336.92,4148.72,4567.69,4540,4298.97,3917.95,4194.87,4597.95,4411.28,4608.21,1697,1719,5.384,0,0,0,0,
23,4070.26,4280.51,4084.62,3867.69,4296.41,4136.92,4569.23,4528.21,4289.23,3914.36,4199.49,4595.9,4396.41,4635.38,1696,1720,5.391,0,0,0,0,
24,4036.92,4356.92,4057.44,3942.05,4331.79,4143.08,4566.15,4530.77,4286.15,3905.64,4196.41,4592.82,4386.67,4633.33,1695,1725,5.4,0,0,0,0,
25,4057.44,4327.69,4073.85,3934.36,4349.23,4153.85,4567.69,4541.54,4295.38,3913.33,4206.15,4603.08,4406.67,4608.72,1693,1728,5.407,0,0,0,0,
26,4087.69,4224.62,4102.05,3861.03,4313.33,4150.26,4570.77,4540.51,4297.95,3915.9,4210.77,4595.9,4417.95,4585.64,1692,1730,5.415,0,0,0,0,
27,4052.31,4284.1,4069.74,3890.77,4334.87,4148.72,4567.69,4535.9,4293.85,3906.67,4202.05,4581.54,4404.62,4584.1,1690,1730,5.423,0,0,0,0,
28,4022.05,4378.97,4042.05,3958.97,4386.15,4155.38,4567.69,4541.54,4300,3915.9,4211.28,4586.67,4417.95,4592.82,1689,1727,5.43,0,0,0,0,
29,4036.92,4357.95,4058.97,3945.64,4371.79,4154.87,4569.23,4543.08,4309.74,3929.74,4214.87,4591.79,4427.18,4602.05,1688,1725,5.438,0,0,0,0,
30,4041.54,4303.08,4058.46,3929.74,4336.92,4151.79,4566.15,4543.08,4315.9,3921.03,4195.38,4579.49,4417.44,4590.26,1688,1724,5.446,0,0,0,0,
31,4035.9,4258.97,4054.36,3909.74,4325.64,4153.85,4568.72,4541.03,4304.1,3908.72,4188.72,4574.87,4414.36,4565.13,1685,1724,5.455,0,0,0,0,
32,4038.97,4251.79,4072.31,3870.26,4329.74,4152.82,4568.72,4528.21,4278.46,3903.59,4195.38,4585.13,4409.23,4567.69,1686,1726,5.462,0,0,0,0,
33,4036.41,4303.59,4069.23,3888.21,4353.85,4151.28,4557.44,4525.64,4273.33,3898.97,4188.21,4598.46,4392.82,4602.05,1686,1725,5.47,0,0,0,0,
34,4035.9,4329.23,4056.41,3933.33,4362.05,4152.31,4555.9,4535.9,4281.03,3900,4190.26,4603.08,4384.1,4628.72,1684,1726,5.478,0,0,0,0,
35,4038.46,4291.28,4058.97,3947.69,4346.15,4150.77,4568.21,4536.92,4280,3909.74,4209.23,4589.23,4395.9,4604.1,1687,1726,5.485,0,0,0,0,
36,4029.74,4256.92,4062.05,3905.64,4339.49,4151.28,4571.79,4535.9,4284.62,3914.36,4214.87,4568.21,4427.69,4545.64,1685,1726,5.493,0,0,0,0,
37,4029.74,4280,4062.05,3886.67,4345.64,4156.41,4568.72,4542.05,4296.41,3911.79,4202.05,4573.85,4437.95,4549.23,1686,1726,5.501,0,0,0,0,
38,4033.85,4315.9,4056.41,3948.72,4342.05,4150.77,4568.21,4542.05,4293.33,3909.23,4195.9,4592.31,4398.97,4599.49,1686,1725,5.508,0,0,0,0,
39,4026.67,4271.79,4053.85,3937.95,4320,4141.54,4569.23,4538.46,4289.74,3911.28,4203.59,4591.28,4376.92,4594.36,1686,1725,5.516,0,0,0,0,
40,4032.82,4210.26,4071.28,3842.05,4308.72,4146.15,4569.74,4541.03,4296.92,3908.72,4192.82,4587.69,4388.21,4564.62,1686,1724,5.525,0,0,0,0,
41,4030.77,4269.74,4066.15,3867.18,4334.36,4153.33,4568.72,4541.03,4297.95,3901.54,4173.85,4576.92,4402.56,4552.82,1687,1724,5.532,0,0,0,0,
42,4010.26,4331.28,4037.95,3953.85,4356.92,4154.87,4568.72,4537.95,4292.31,3904.62,4185.13,4572.82,4400.51,4563.08,1686,1720,5.541,0,0,0,0,
43,4023.59,4255.38,4052.82,3923.59,4345.64,4154.87,4572.82,4538.97,4295.9,3911.28,4204.1,4593.33,4371.79,4587.69,1686,1721,5.548,0,0,0,0,
44,4049.74,4200.51,4078.97,3883.08,4334.87,4153.85,4572.82,4540.51,4298.97,3906.15,4202.05,4600,4366.15,4589.74,1687,1718,5.555,0,0,0,0,
45,4034.36,4275.38,4064.1,3924.62,4344.1,4154.87,4570.77,4537.95,4286.15,3904.62,4195.9,4580,4405.13,4567.18,1686,1720,5.563,0,0,0,0,
46,4025.64,4307.18,4055.38,3942.05,4356.92,4157.44,4572.82,4538.46,4282.05,3911.79,4204.1,4575.9,4433.85,4557.95,1689,1720,5.571,0,0,0,0,
47,4052.82,4241.03,4079.49,3902.05,4344.62,4156.92,4573.85,4540,4292.82,3903.59,4206.15,4601.03,4398.46,4594.87,1688,1720,5.579,0,0,0,0,
48,4054.87,4220,4086.67,3876.92,4314.87,4152.82,4571.28,4535.9,4287.18,3889.74,4187.18,4616.41,4346.15,4632.31,1691,1719,5.587,0,0,0,0,
49,4038.97,4241.03,4073.85,3902.56,4316.92,4148.21,4570.26,4536.41,4280.51,3892.82,4181.03,4602.56,4359.49,4604.1,1692,1717,5.595,0,0,0,0,
50,4036.92,4241.54,4061.03,3928.21,4344.62,4150.77,4567.69,4540,4289.23,3898.97,4196.41,4576.92,4397.44,4548.72,1694,1716,5.604,0,0,0,0,
51,4039.49,4233.85,4063.59,3893.33,4350.77,4158.97,4567.18,4537.95,4294.36,3894.87,4197.95,4581.03,4395.9,4567.69,1695,1717,5.611,0,0,0,0,
52,4049.74,4238.46,4077.95,3870.77,4341.03,4157.44,4577.95,4542.56,4296.92,3898.46,4188.72,4607.69,4371.28,4614.87,1696,1717,5.618,0,0,0,0,
53,4061.03,4234.87,4086.67,3906.15,4327.18,4149.23,4583.08,4549.74,4304.1,3907.69,4192.82,4610.77,4361.03,4599.49,1696,1717,5.626,0,0,0,0,
54,4050.77,4228.72,4073.85,3949.23,4326.67,4153.85,4574.87,4543.59,4302.05,3911.28,4202.05,4593.33,4389.74,4573.33,1695,1719,5.634,0,0,0,0,
55,4052.31,4238.97,4066.67,3928.21,4345.13,4156.41,4569.23,4535.9,4292.82,3910.26,4209.23,4585.13,4440,4584.62,1696,1716,5.642,0,0,0,0,
56,4070.77,4230.77,4088.72,3843.59,4333.33,4142.05,4571.79,4536.92,4289.74,3902.56,4206.67,4600.51,4417.44,4612.31,1693,1717,5.649,0,0,0,0,
57,4055.9,4219.49,4091.28,3846.67,4310.77,4137.95,4570.77,4536.41,4288.72,3896.92,4193.85,4610.77,4343.08,4615.38,1694,1715,5.657,0,0,0,0,
58,4026.67,4241.54,4057.95,3950.77,4344.1,4152.31,4569.23,4536.92,4292.31,3906.15,4193.33,4595.38,4357.44,4582.56,1692,1714,5.665,0,0,0,0,
59,4038.97,4247.18,4054.36,3968.72,4368.72,4158.97,4571.28,4541.54,4298.46,3918.97,4209.23,4587.69,4429.23,4561.03,1691,1715,5.673,0,0,0,0,
60,4055.9,4233.85,4074.36,3908.21,4338.46,4150.77,4567.18,4537.95,4291.28,3912.31,4205.64,4588.72,4426.15,4567.18,1690,1715,5.682,0,0,0,0,
61,4048.21,4255.38,4065.64,3901.54,4335.38,4149.74,4563.08,4532.82,4284.62,3903.08,4189.74,4588.21,4388.72,4595.9,1689,1716,5.689,0,0,0,0,
62,4041.54,4263.08,4053.33,3895.9,4352.31,4155.9,4569.23,4538.97,4297.95,3911.79,4194.87,4593.33,4391.79,4613.85,1690,1714,5.696,0,0,0,0,
63,4045.64,4217.95,4063.08,3886.15,4338.97,4157.44,4570.26,4540,4303.59,3915.9,4204.1,4592.82,4397.44,4598.46,1689,1715,5.705,0,0,0,0,
64,4050.77,4189.23,4062.56,3914.87,4320,4151.79,4557.95,4523.08,4284.62,3899.49,4191.28,4576.92,4380.51,4578.46,1690,1713,5.712,0,0,0,0,
65,4047.69,4196.41,4058.97,3889.74,4318.46,4150.77,4555.9,4519.49,4278.97,3893.33,4178.97,4565.13,4382.05,4573.33,1690,1714,5.721,0,0,0,0,
66,4030.77,4244.62,4053.85,3873.85,4343.59,4157.44,4566.15,4534.36,4294.87,3907.69,4192.31,4571.28,4398.97,4571.28,1690,1713,5.727,0,0,0,0,
67,4035.9,4285.64,4053.85,3927.18,4371.79,4157.44,4568.21,4542.05,4301.03,3921.54,4215.9,4590.26,4411.28,4588.21,1689,1713,5.735,0,0,0,0,
68,4066.67,4256.92,4070.77,3934.36,4357.44,4151.28,4565.64,4542.05,4298.97,3922.56,4217.95,4603.59,4410.77,4611.28,1690,1712,5.743,0,0,0,0,
69,4068.21,4235.9,4077.44,3906.67,4333.85,4150.26,4567.18,4544.1,4302.05,3917.95,4206.67,4598.97,4407.18,4601.03,1689,1712,5.751,0,0,0,0,
70,4045.13,4259.49,4066.15,3929.23,4339.49,4153.33,4569.74,4541.03,4301.03,3917.44,4204.62,4594.36,4412.31,4594.36,1690,1712,5.759,0,0,0,0,
71,4057.44,4222.05,4073.33,3911.79,4332.31,4153.85,4570.26,4535.38,4287.69,3915.9,4208.21,4593.33,4418.97,4609.74,1690,1711,5.767,0,0,0,0,
72,4080.51,4178.97,4086.15,3881.54,4323.59,4153.85,4566.67,4533.85,4280.51,3907.18,4202.05,4594.87,4402.05,4620.51,1689,1713,5.775,0,0,0,0,
73,4065.13,4238.97,4075.9,3925.64,4348.21,4152.31,4564.62,4534.36,4290.26,3905.13,4196.92,4600,4389.23,4610.77,1689,1713,5.783,0,0,0,0,
74,4047.69,4279.49,4070.77,3933.85,4356.92,4151.28,4565.13,4535.9,4297.44,3912.82,4204.1,4592.31,4403.08,4592.31,1689,1712,5.79,0,0,0,0,
75,4053.85,4231.79,4072.82,3903.59,4341.03,4150.26,4562.56,4536.41,4292.82,3909.74,4203.59,4587.69,4398.97,4603.08,1690,1711,5.798,0,0,0,0,
76,4055.9,4209.23,4071.79,3906.67,4335.9,4152.31,4565.13,4536.92,4291.79,3905.64,4195.38,4597.95,4394.36,4622.05,1690,1711,5.806,0,0,0,0,
77,4053.33,4236.92,4084.1,3889.74,4334.87,4159.49,4571.28,4539.49,4296.92,3912.82,4197.95,4602.05,4408.72,4617.95,1691,1710,5.815,0,0,0,0,
78,4058.97,4241.03,4088.21,3885.64,4336.92,4155.9,4570.26,4539.49,4301.54,3921.03,4208.72,4598.97,4402.56,4611.79,1692,1710,5.821,0,0,0,0,
79,4060,4225.13,4068.21,3942.56,4343.08,4145.13,4567.18,4541.54,4305.64,3923.08,4212.31,4601.54,4396.92,4616.92,1692,1708,5.829,0,0,0,0,
80,4058.97,4206.15,4067.18,3942.05,4330.77,4146.15,4567.18,4540.51,4296.92,3915.38,4202.05,4600,4414.36,4621.54,1691,1708,5.838,0,0,0,0,
81,4069.74,4207.18,4090.77,3865.64,4321.03,4152.82,4566.15,4539.49,4291.79,3909.74,4194.36,4596.41,4414.36,4618.46,1692,1707,5.845,0,0,0,0,
82,4075.9,4244.62,4089.74,3876.41,4340,4152.82,4568.72,4548.21,4306.15,3918.97,4205.13,4605.13,4402.56,4609.23,1691,1709,5.854,0,0,0,0,
83,4067.69,4255.38,4072.31,3931.79,4341.54,4153.33,4570.77,4551.79,4309.23,3922.05,4218.46,4607.69,4410.77,4611.28,1691,1708,5.86,0,0,0,0,
84,4062.05,4234.87,4070.77,3918.46,4333.85,4156.41,4567.18,4541.54,4294.36,3910.77,4213.85,4593.33,4417.44,4616.41,1690,1710,5.868,0,0,0,0,
85,4069.74,4216.41,4080,3907.69,4349.74,4154.87,4568.21,4536.41,4290.77,3909.74,4209.74,4589.74,4410.26,4613.33,1690,1710,5.876,0,0,0,0,
86,4076.92,4216.92,4079.49,3937.44,4350.77,4152.82,4567.18,4538.97,4294.87,3915.38,4213.33,4600,4410.77,4620,1689,1711,5.884,0,0,0,0,
87,4070.77,4238.97,4068.21,3933.33,4337.95,4154.87,4560,4536.92,4293.85,3913.85,4209.23,4595.38,4421.03,4624.62,1690,1710,5.892,0,0,0,0,
88,4061.03,4228.72,4067.18,3886.15,4337.44,4152.31,4560.51,4534.36,4292.82,3910.26,4199.49,4586.15,4407.18,4610.26,1688,1709,5.9,0,0,0,0,
89,4063.08,4188.72,4076.92,3879.49,4338.46,4151.28,4568.21,4537.95,4296.41,3910.77,4198.97,4600,4383.08,4612.31,1689,1710,5.907,0,0,0,0,
90,4069.23,4225.13,4079.49,3908.21,4335.9,4154.36,4569.23,4540.51,4297.95,3910.26,4200,4608.72,4392.31,4621.54,1690,1710,5.916,0,0,0,0,
91,4066.67,4277.95,4072.31,3913.33,4335.9,4154.36,4566.67,4537.44,4293.85,3906.67,4195.38,4589.74,4412.82,4601.54,1689,1712,5.94,0,0,0,0,
92,4068.21,4232.31,4071.79,3908.21,4337.95,4152.31,4566.67,4536.92,4291.79,3909.74,4201.54,4584.1,4413.33,4595.9,1690,1711,5.941,0,0,0,0,
93,4082.05,4209.23,4082.05,3905.13,4345.13,4152.82,4569.23,4545.13,4300,3924.62,4215.9,4606.67,4421.03,4631.79,1690,1712,5.941,0,0,0,0,
94,4080.51,4241.03,4081.54,3911.79,4349.23,4152.82,4570.77,4547.69,4307.69,3930.77,4215.38,4614.36,4423.59,4646.67,1691,1712,5.946,0,0,0,0,
95,4068.21,4215.9,4074.87,3914.36,4337.95,4154.87,4569.23,4541.03,4302.56,3915.38,4199.49,4601.54,4388.72,4626.67,1690,1713,5.954,0,0,0,0,
96,4077.44,4182.05,4078.97,3901.03,4334.87,4156.92,4567.18,4536.92,4294.36,3904.1,4192.82,4592.82,4388.72,4614.36,1691,1712,5.963,0,0,0,0,
97,4092.82,4221.54,4086.67,3904.1,4345.13,4151.79,4566.67,4538.46,4293.33,3911.28,4205.13,4596.92,4428.21,4617.95,1689,1713,5.97,0,0,0,0,
98,4091.28,4256.92,4087.69,3908.21,4348.21,4151.28,4568.21,4546.67,4303.59,3923.08,4217.44,4603.59,4428.21,4626.67,1691,1713,5.978,0,0,0,0,
99,4088.21,4212.82,4087.69,3895.9,4335.9,4151.28,4570.77,4554.36,4312.82,3921.54,4215.9,4607.18,4398.46,4643.59,1690,1712,5.986,0,0,0,0,
100,4084.62,4176.92,4087.18,3882.56,4310.77,4143.08,4570.26,4545.64,4300.51,3905.64,4196.41,4610.26,4372.82,4651.28,1690,1713,5.994,0,0,0,0,
101,4063.59,4230.77,4074.36,3890.26,4313.85,4140.51,4565.64,4533.85,4283.08,3897.44,4183.59,4599.49,4383.59,4617.44,1691,1712,6.002,0,0,0,0,
102,4061.54,4248.72,4068.21,3924.1,4347.18,4151.28,4566.67,4535.38,4282.56,3906.15,4197.95,4585.13,4424.1,4593.85,1690,1714,6.01,0,0,0,0,
103,4101.54,4178.46,4093.33,3945.13,4360.51,4163.59,4572.31,4540.51,4284.62,3910.77,4207.69,4598.97,4428.21,4629.74,1692,1712,6.017,0,0,0,0,
104,4114.36,4173.85,4113.33,3899.49,4346.15,4157.95,4569.23,4535.9,4281.03,3905.64,4198.46,4613.85,4403.59,4651.79,1692,1713,6.026,0,0,0,0,
105,4078.97,4240.51,4094.87,3852.82,4342.56,4146.15,4557.44,4525.13,4281.03,3906.67,4199.49,4595.38,4402.56,4615.38,1692,1713,6.033,0,0,0,0,
106,4064.62,4249.23,4075.38,3893.85,4346.67,4144.62,4552.82,4522.05,4279.49,3910.77,4202.56,4586.15,4390.26,4607.18,1692,1714,6.04,0,0,0,0,
107,4074.36,4208.72,4078.46,3923.08,4330.77,4142.56,4560,4531.79,4281.03,3911.28,4193.33,4602.56,4371.79,4633.85,1693,1713,6.049,0,0,0,0,
108,4068.21,4205.64,4078.97,3907.69,4324.1,4141.03,4566.15,4538.97,4290.26,3909.74,4194.36,4600,4404.62,4619.49,1692,1713,6.056,0,0,0,0,
109,4073.85,4217.95,4082.05,3913.33,4341.54,4148.21,4565.64,4537.44,4291.79,3910.77,4207.69,4594.36,4427.69,4607.69,1693,1712,6.065,0,0,0,0,
110,4092.82,4201.03,4094.36,3897.95,4342.56,4150.26,4566.15,4536.92,4285.64,3910.77,4201.54,4603.08,4391.79,4623.59,1692,1711,6.072,0,0,0,0,
111,4087.69,4186.15,4096.92,3864.62,4318.97,4140.51,4567.18,4535.9,4281.54,3902.05,4181.54,4605.13,4355.38,4628.21,1692,1712,6.08,0,0,0,0,
112,4074.87,4182.56,4091.79,3888.72,4321.03,4152.31,4571.28,4537.44,4286.15,3900.51,4183.59,4604.1,4370.77,4622.56,1692,1709,6.087,0,0,0,0,
113,4075.9,4190.77,4080.51,3940.51,4349.74,4169.74,4570.77,4541.03,4292.31,3911.79,4203.08,4596.92,4409.74,4612.31,1691,1710,6.095,0,0,0,0,
114,4073.33,4209.23,4071.79,3914.87,4353.85,4163.59,4562.05,4533.33,4288.21,3913.33,4203.08,4585.13,4407.18,4599.49,1693,1708,6.103,0,0,0,0,
115,4063.59,4206.67,4076.92,3835.38,4330.26,4152.31,4560.51,4523.08,4279.49,3907.18,4185.13,4582.05,4383.08,4597.95,1691,1708,6.111,0,0,0,0,
116,4058.46,4170.77,4077.95,3833.33,4317.95,4150.77,4560.51,4525.64,4277.95,3905.64,4185.64,4586.15,4388.72,4603.08,1691,1709,6.12,0,0,0,0,
117,4065.13,4179.49,4076.92,3915.38,4341.54,4154.36,4556.92,4534.87,4282.56,3909.23,4207.18,4598.46,4394.36,4615.38,1690,1708,6.127,0,0,0,0,
118,4079.49,4229.23,4088.72,3941.54,4354.87,4155.38,4561.03,4538.46,4290.26,3920.51,4216.41,4617.44,4394.87,4632.31,1691,1709,6.135,0,0,0,0,
119,4085.13,4209.23,4095.9,3901.54,4333.85,4154.87,4567.18,4539.49,4295.9,3925.13,4205.13,4620,4404.62,4635.9,1691,1708,6.142,0,0,0,0,
120,4078.97,4161.54,4090.77,3881.54,4323.08,4156.41,4565.64,4537.95,4295.38,3915.38,4195.9,4605.64,4400,4633.33,1691,1709,6.15,0,0,0,0,
121,4072.31,4168.21,4088.21,3880.51,4332.31,4157.44,4566.67,4543.08,4300.51,3918.97,4205.64,4600.51,4397.95,4625.64,1692,1708,6.158,0,0,0,0,
122,4072.82,4195.38,4089.23,3895.9,4337.95,4154.36,4569.74,4551.28,4304.62,3927.69,4220,4605.13,4405.13,4614.87,1692,1709,6.165,0,0,0,0,
123,4076.41,4200.51,4087.69,3905.13,4343.59,4151.79,4565.64,4548.72,4303.59,3925.64,4220.51,4606.67,4405.13,4618.46,1693,1707,6.173,0,0,0,0,
124,4064.62,4193.33,4082.05,3873.85,4335.9,4151.79,4564.62,4541.03,4304.62,3925.13,4208.21,4600.51,4400,4614.87,1692,1707,6.181,0,0,0,0,
125,4051.28,4175.9,4072.82,3849.74,4307.69,4149.23,4564.1,4536.92,4297.95,3918.97,4194.36,4594.87,4382.05,4605.64,1693,1706,6.189,0,0,0,0,
126,4065.13,4154.87,4083.59,3873.33,4318.97,4159.49,4566.67,4536.92,4292.82,3913.33,4197.44,4604.62,4373.33,4622.56,1692,1707,6.197,0,0,0,0,
127,4081.54,4180,4101.54,3898.46,4356.92,4170.77,4569.74,4540.51,4303.59,3931.79,4216.41,4614.87,4411.28,4632.31,1692,1709,6.205,0,0,0,0,
128,4080.51,4212.31,4101.03,3896.92,4350.77,4162.05,4568.21,4542.05,4308.72,3944.1,4222.56,4616.41,4428.72,4624.62,1691,1710,6.212,0,0,0,0,
0,4074.87,4197.95,4089.74,3909.74,4333.85,4153.33,4566.67,4540,4302.56,3929.74,4217.95,4622.05,4396.41,4630.26,1691,1710,6.22,0,0,0,0,
1,4069.23,4181.03,4081.03,3926.15,4337.95,4157.95,4561.03,4539.49,4303.08,3927.18,4216.41,4622.05,4389.23,4636.41,1691,1710,6.228,0,0,0,0,
2,4074.87,4169.74,4091.28,3860,4326.15,4154.87,4558.97,4541.03,4300.51,3929.23,4211.28,4608.21,4410.77,4636.41,1690,1710,6.236,0,0,0,0,
3,4082.05,4154.36,4108.72,3777.44,4311.28,4148.72,4567.18,4544.1,4294.36,3915.38,4201.54,4603.59,4396.41,4630.26,1690,1710,6.245,0,0,0,0,
4,4057.44,4174.87,4087.69,3845.13,4323.08,4153.33,4567.18,4545.13,4294.36,3908.72,4194.87,4607.18,4364.62,4609.23,1690,1711,6.251,0,0,0,0,
5,4030.77,4199.49,4050.77,3951.28,4334.36,4154.87,4555.38,4540.51,4295.9,3911.79,4197.95,4597.44,4380.51,4600,1689,1711,6.26,0,0,0,0,
6,4048.72,4156.41,4065.13,3915.38,4321.54,4152.82,4555.9,4536.41,4293.85,3909.74,4200,4591.28,4395.9,4611.28,1690,1711,6.267,0,0,0,0,
7,4065.64,4144.1,4081.54,3859.49,4321.54,4153.33,4556.41,4532.31,4289.23,3907.18,4187.69,4600,4365.13,4611.28,1689,1710,6.275,0,0,0,0,
8,4056.92,4188.72,4066.67,3869.74,4343.08,4157.95,4550.26,4526.15,4285.64,3907.18,4185.13,4598.46,4369.74,4600,1690,1709,6.283,0,0,0,0,
9,4056.92,4177.95,4074.36,3853.33,4337.95,4166.15,4558.97,4526.67,4287.18,3908.21,4207.18,4589.74,4411.79,4598.97,1689,1708,6.291,0,0,0,0,
10,4066.67,4137.44,4093.33,3834.36,4321.03,4169.23,4570.77,4537.95,4294.36,3916.41,4220,4602.56,4401.03,4618.97,1691,1708,6.298,0,0,0,0,
11,4064.62,4156.41,4080,3870.26,4333.33,4158.97,4563.08,4541.54,4297.44,3924.1,4210.26,4610.26,4385.13,4625.13,1690,1708,6.307,0,0,0,0,
12,4053.85,4186.15,4063.08,3900.51,4332.82,4145.13,4550.77,4527.69,4286.67,3910.77,4196.92,4589.74,4392.82,4603.59,1691,1710,6.315,0,0,0,0,
13,4054.87,4176.92,4069.23,3890.77,4309.74,4143.59,4552.82,4524.62,4275.38,3895.38,4184.1,4589.74,4360.51,4616.92,1692,1708,6.323,0,0,0,0,
14,4062.56,4172.82,4078.97,3858.46,4321.54,4151.79,4559.49,4541.03,4286.15,3903.08,4185.13,4607.18,4357.95,4636.92,1691,1710,6.33,0,0,0,0,
15,4059.49,4177.95,4076.92,3846.67,4341.03,4156.41,4557.44,4544.1,4297.95,3913.85,4200.51,4592.82,4394.87,4605.64,1692,1710,6.337,0,0,0,0,
16,4059.49,4156.41,4071.79,3882.05,4325.64,4155.9,4556.92,4536.92,4294.36,3911.28,4204.1,4587.18,4382.05,4597.95,1692,1710,6.346,0,0,0,0,
17,4063.08,4137.44,4074.36,3898.46,4312.82,4153.85,4560,4538.97,4290.26,3906.67,4187.18,4604.1,4361.03,4623.59,1692,1710,6.353,0,0,0,0,
18,4064.1,4143.59,4087.18,3849.74,4320.51,4154.36,4560.51,4541.54,4288.21,3907.69,4184.1,4596.92,4383.08,4607.69,1692,1709,6.361,0,0,0,0,
19,4072.82,4160.51,4093.33,3824.1,4332.31,4157.44,4557.95,4532.31,4281.54,3908.72,4194.36,4589.74,4383.59,4600,1691,1710,6.37,0,0,0,0,
20,4062.05,4186.67,4073.33,3872.82,4337.44,4155.38,4554.36,4524.62,4280,3903.08,4195.38,4591.79,4376.92,4610.26,1691,1709,6.377,0,0,0,0,
21,4035.9,4192.82,4055.9,3902.56,4334.87,4149.74,4551.79,4520,4279.49,3897.44,4196.92,4582.56,4395.38,4605.13,1691,1709,6.385,0,0,0,0,
22,4048.72,4164.1,4069.74,3876.92,4336.92,4161.54,4554.87,4521.03,4274.36,3900,4200.51,4596.41,4384.1,4629.74,1690,1708,6.392,0,0,0,0,
23,4073.85,4155.38,4083.59,3880,4336.41,4169.23,4557.44,4532.82,4281.54,3911.79,4208.72,4615.38,4378.46,4648.21,1690,1710,6.4,0,0,0,0,
24,4074.87,4166.67,4086.15,3886.67,4328.21,4155.38,4555.9,4541.54,4295.38,3915.9,4215.38,4607.69,4397.95,4631.28,1691,1709,6.408,0,0,0,0,
25,4084.62,4166.67,4098.46,3852.31,4330.77,4156.41,4566.15,4542.05,4299.49,3913.33,4210.26,4615.38,4393.85,4635.9,1690,1711,6.416,0,0,0,0,
26,4093.33,4154.87,4102.05,3845.13,4332.82,4166.15,4572.31,4539.49,4295.9,3911.28,4204.1,4627.18,4383.08,4642.05,1691,1710,6.425,0,0,0,0,
27,4065.64,4168.21,4078.97,3885.13,4330.26,4152.31,4557.44,4536.92,4294.36,3912.82,4215.38,4605.13,4393.85,4614.36,1690,1710,6.431,0,0,0,0,
28,4049.74,4192.82,4067.18,3893.33,4340,4149.23,4557.44,4536.41,4293.85,3918.97,4219.49,4592.82,4408.72,4611.79,1692,1712,6.44,0,0,0,0,
29,4061.03,4175.9,4073.33,3871.28,4341.54,4167.69,4571.28,4540,4295.9,3917.95,4202.56,4601.03,4402.56,4620.51,1692,1710,6.447,0,0,0,0,
30,4075.38,4136.92,4083.59,3869.23,4325.64,4162.05,4564.62,4539.49,4297.44,3911.28,4197.44,4600.51,4382.05,4607.69,1692,1709,6.456,0,0,0,0,
31,4081.03,4146.15,4086.67,3880,4326.67,4148.21,4549.23,4532.31,4286.15,3907.18,4201.03,4596.92,4369.74,4612.82,1692,1709,6.463,0,0,0,0,
32,4070.77,4187.18,4080,3880.51,4342.56,4159.49,4556.41,4533.85,4283.08,3910.26,4201.03,4600.51,4383.08,4628.72,1693,1710,6.47,0,0,0,0,
33,4067.69,4171.79,4083.59,3862.05,4340,4164.62,4566.67,4540.51,4296.92,3912.31,4202.05,4609.23,4391.28,4627.69,1693,1709,6.478,0,0,0,0,
34,4075.9,4143.08,4089.74,3861.03,4328.72,4153.85,4558.97,4537.44,4293.33,3909.74,4200.51,4608.72,4385.64,4625.13,1692,1711,6.486,0,0,0,0,
35,4073.85,4161.54,4083.08,3881.54,4326.15,4150.77,4554.87,4532.31,4277.95,3908.21,4198.97,4601.54,4380,4624.62,1693,1710,6.495,0,0,0,0,
36,4069.23,4180.51,4079.49,3867.18,4329.23,4152.82,4561.54,4535.38,4286.15,3911.28,4202.05,4604.1,4375.9,4623.59,1691,1712,6.502,0,0,0,0,
37,4078.46,4161.03,4089.74,3840.51,4326.67,4153.33,4566.67,4540,4297.95,3915.38,4203.59,4609.23,4388.72,4629.23,1692,1713,6.511,0,0,0,0,
38,4070.77,4148.21,4080.51,3852.31,4322.56,4153.33,4565.13,4538.46,4290.26,3913.33,4200.51,4598.97,4402.05,4621.03,1690,1712,6.517,0,0,0,0,
39,4055.38,4166.15,4062.56,3882.05,4334.36,4154.36,4563.59,4536.41,4288.21,3910.77,4201.54,4591.79,4387.18,4607.69,1691,1714,6.525,0,0,0,0,
40,4068.21,4172.31,4072.82,3886.15,4341.03,4161.54,4569.23,4544.62,4295.9,3911.28,4203.08,4597.95,4374.36,4620,1691,1713,6.533,0,0,0,0,
41,4081.54,4144.1,4092.82,3849.23,4329.74,4169.23,4578.46,4555.9,4301.03,3912.31,4201.03,4600,4387.18,4628.21,1690,1714,6.541,0,0,0,0,
42,4077.95,4123.08,4093.85,3834.87,4323.08,4167.18,4578.97,4557.95,4304.1,3911.79,4199.49,4599.49,4390.26,4614.36,1691,1713,6.549,0,0,0,0,
43,4069.74,4169.23,4077.44,3886.67,4343.08,4166.15,4572.82,4552.31,4302.56,3911.79,4203.08,4600,4389.23,4612.31,1691,1713,6.557,0,0,0,0,
44,4078.46,4195.9,4085.13,3910.26,4352.82,4169.74,4576.92,4554.87,4304.1,3918.46,4210.26,4610.26,4397.44,4632.82,1691,1712,6.564,0,0,0,0,
45,4089.74,4149.23,4105.64,3869.23,4333.85,4160.51,4578.46,4555.38,4309.74,3925.64,4212.31,4626.67,4386.67,4643.08,1692,1712,6.573,0,0,0,0,
46,4076.41,4153.33,4094.36,3858.97,4329.23,4154.36,4570.77,4544.1,4303.59,3927.69,4213.85,4627.18,4385.64,4636.41,1693,1710,6.58,0,0,0,0,
47,4067.69,4190.77,4084.62,3864.1,4340.51,4165.64,4568.72,4538.46,4297.95,3924.1,4216.92,4615.9,4397.95,4632.82,1691,1710,6.588,0,0,0,0,
48,4088.72,4143.59,4102.05,3822.56,4333.85,4167.69,4571.28,4541.54,4303.08,3919.49,4213.33,4609.23,4388.21,4634.36,1693,1709,6.596,0,0,0,0,
49,4094.87,4111.28,4104.1,3809.74,4320.51,4158.97,4571.28,4542.05,4299.49,3914.36,4202.56,4604.1,4384.62,4625.13,1692,1708,6.603,0,0,0,0,
50,4065.13,4167.69,4078.97,3859.49,4324.62,4155.9,4563.59,4533.33,4278.46,3900,4187.18,4596.41,4387.69,4612.31,1693,1709,6.611,0,0,0,0,
51,4060,4180,4073.33,3890.77,4328.21,4152.31,4555.9,4528.21,4269.74,3893.33,4187.18,4602.05,4374.36,4624.62,1692,1708,6.62,0,0,0,0,
52,4079.49,4142.05,4090.26,3864.62,4321.54,4150.77,4565.13,4537.44,4288.72,3910.77,4206.15,4610.26,4384.62,4634.87,1691,1710,6.627,0,0,0,0,
53,4080,4143.59,4094.87,3835.9,4328.72,4157.44,4572.82,4545.64,4297.95,3919.49,4212.82,4605.64,4402.56,4624.1,1692,1709,6.635,0,0,0,0,
54,4071.79,4170.77,4087.69,3849.23,4334.36,4151.79,4558.46,4533.33,4278.97,3898.97,4197.95,4603.59,4382.05,4620.51,1690,1711,6.642,0,0,0,0,
55,4073.33,4163.59,4084.1,3853.85,4322.56,4139.49,4549.74,4523.59,4270.26,3891.79,4196.41,4601.54,4383.59,4618.46,1690,1710,6.651,0,0,0,0,
56,4074.36,4137.44,4088.21,3836.41,4321.03,4145.64,4563.08,4536.92,4288.72,3910.26,4206.15,4598.46,4402.05,4617.95,1689,1710,6.658,0,0,0,0,
57,4070.26,4144.1,4087.18,3846.67,4332.31,4157.44,4570.26,4544.62,4301.54,3914.87,4196.92,4603.59,4382.56,4630.77,1690,1710,6.667,0,0,0,0,
58,4065.13,4170.26,4076.92,3862.56,4330.26,4156.41,4566.15,4538.97,4297.44,3910.77,4197.44,4608.72,4377.95,4630.77,1689,1710,6.674,0,0,0,0,
59,4064.62,4186.15,4075.9,3834.87,4323.59,4153.33,4566.67,4537.95,4295.9,3910.26,4209.74,4600.51,4401.54,4615.38,1690,1709,6.682,0,0,0,0,
60,4074.36,4176.92,4088.21,3820.51,4334.87,4155.9,4572.31,4541.54,4296.41,3910.77,4208.72,4597.44,4404.62,4619.49,1690,1710,6.69,0,0,0,0,
61,4081.03,4155.38,4094.87,3857.95,4327.69,4156.92,4572.82,4543.59,4300,3915.38,4202.56,4611.28,4389.23,4637.44,1691,1709,6.697,0,0,0,0,
62,4076.41,4140.51,4089.74,3867.69,4304.62,4155.9,4569.23,4544.62,4303.08,3921.54,4201.54,4612.82,4383.59,4639.49,1691,1710,6.706,0,0,0,0,
63,4076.41,4151.79,4090.77,3842.05,4320.51,4154.87,4567.18,4550.26,4304.1,3924.62,4206.15,4610.77,4388.21,4644.62,1692,1709,6.713,0,0,0,0,
64,4078.46,4187.18,4095.9,3845.13,4341.54,4154.36,4568.21,4554.87,4302.56,3924.62,4204.1,4624.1,4381.54,4650.26,1692,1709,6.721,0,0,0,0,
65,4075.9,4184.62,4091.79,3850.26,4321.54,4154.87,4568.72,4550.26,4297.44,3916.41,4197.44,4620,4385.13,4635.9,1694,1709,6.728,0,0,0,0,
66,4072.82,4159.49,4086.67,3834.36,4313.85,4154.87,4565.64,4540,4292.82,3908.72,4204.62,4600.51,4406.15,4627.18,1692,1710,6.736,0,0,0,0,
67,4072.31,4151.28,4087.18,3840.51,4338.46,4153.85,4562.56,4538.97,4293.85,3920,4218.46,4600,4413.85,4633.33,1693,1710,6.744,0,0,0,0,
68,4083.08,4150.26,4093.33,3861.54,4335.9,4153.85,4566.15,4543.08,4295.38,3928.21,4219.49,4612.31,4406.67,4637.44,1692,1710,6.752,0,0,0,0,
69,4091.79,4157.95,4097.95,3848.21,4308.72,4154.36,4572.31,4542.05,4294.36,3914.87,4202.05,4615.9,4394.87,4638.46,1692,1711,6.761,0,0,0,0,
70,4071.79,4171.28,4086.15,3845.13,4313.33,4152.82,4564.62,4538.97,4290.77,3900.51,4184.62,4608.21,4376.41,4631.28,1693,1709,6.768,0,0,0,0,
71,4061.54,4169.74,4078.97,3844.62,4333.85,4152.31,4554.87,4540,4293.33,3911.28,4197.95,4599.49,4389.74,4618.97,1691,1711,6.776,0,0,0,0,
72,4080.51,4144.62,4096.41,3804.62,4326.67,4153.85,4562.05,4543.59,4301.54,3929.74,4220,4606.67,4409.74,4632.82,1691,1710,6.783,0,0,0,0,
73,4084.62,4135.9,4103.08,3806.15,4305.64,4152.82,4565.13,4540,4293.33,3920,4207.18,4618.97,4383.59,4652.31,1691,1710,6.792,0,0,0,0,
74,4075.38,4129.23,4084.62,3855.9,4306.67,4150.26,4555.38,4532.31,4277.95,3902.56,4189.74,4602.56,4373.85,4631.79,1690,1709,6.799,0,0,0,0,
75,4068.72,4135.38,4073.33,3865.13,4324.62,4152.82,4558.46,4534.36,4280.51,3907.18,4201.03,4583.59,4389.74,4608.72,1689,1710,6.808,0,0,0,0,
76,4052.31,4158.97,4071.79,3845.13,4329.74,4154.36,4565.64,4537.95,4286.15,3913.33,4197.95,4591.79,4372.31,4612.82,1690,1709,6.816,0,0,0,0,
77,4050.77,4132.31,4082.05,3811.79,4319.49,4152.31,4560.51,4536.41,4278.97,3907.18,4181.54,4601.03,4362.05,4621.54,1690,1710,6.822,0,0,0,0,
78,4062.05,4119.49,4091.79,3797.44,4316.41,4152.31,4562.56,4536.41,4280,3904.62,4185.13,4592.82,4383.59,4617.44,1691,1709,6.831,0,0,0,0,
79,4052.82,4154.36,4078.46,3833.33,4326.67,4156.41,4571.79,4538.46,4289.23,3910.77,4190.26,4584.62,4384.62,4602.05,1690,1709,6.838,0,0,0,0,
80,4050.77,4144.1,4069.74,3849.23,4335.38,4157.95,4566.15,4536.92,4284.1,3909.23,4188.72,4591.79,4373.33,4603.59,1691,1710,6.846,0,0,0,0,
81,4073.33,4106.67,4086.15,3824.62,4331.28,4154.87,4555.9,4533.85,4274.87,3899.49,4191.28,4604.62,4375.9,4632.31,1692,1709,6.855,0,0,0,0,
82,4084.62,4121.54,4104.1,3812.31,4323.59,4152.82,4556.41,4535.9,4281.54,3898.46,4195.38,4611.79,4375.9,4649.74,1691,1711,6.861,0,0,0,0,
83,4072.31,4166.67,4101.54,3821.03,4325.64,4152.82,4558.97,4538.46,4294.87,3910.26,4199.49,4609.74,4382.05,4635.38,1692,1711,6.87,0,0,0,0,
