COUNTER,AF3,F7,F3, FC5, T7, P7, O1, O2,P8, T8, FC6, F4,F8, AF4,GYROX, GYROY, TIMESTAMP, FUNC_ID, FUNC_VALUE, MARKER, SYNC_SIGNAL,
55,4059.49,4171.79,4057.44,3871.28,4409.74,4166.15,4553.85,4537.44,4287.69,3911.28,4229.23,4597.44,4411.28,4598.97,1691,1711,0.091,0,0,0,0,
56,4063.08,4187.18,4056.92,3882.05,4409.74,4167.69,4555.9,4541.03,4295.38,3926.15,4235.9,4601.03,4420,4601.03,1692,1711,0.099,0,0,0,0,
57,4062.56,4160,4064.1,3849.23,4393.85,4154.36,4556.92,4538.97,4297.44,3928.21,4236.41,4599.49,4418.46,4598.97,1692,1710,0.106,0,0,0,0,
58,4065.64,4145.64,4073.85,3838.46,4389.23,4148.21,4555.38,4541.03,4295.38,3923.08,4238.97,4606.15,4416.92,4599.49,1692,1710,0.115,0,0,0,0,
59,4077.44,4167.18,4077.95,3869.23,4400,4161.03,4559.49,4550.77,4300.51,3927.69,4247.69,4620,4427.69,4608.21,1692,1710,0.123,0,0,0,0,
60,4076.41,4175.38,4073.85,3876.92,4403.59,4165.13,4566.15,4550.77,4302.05,3928.21,4250.26,4618.97,4431.28,4613.85,1693,1709,0.13,0,0,0,0,
61,4071.28,4166.15,4073.33,3863.08,4395.9,4163.59,4566.15,4546.67,4298.46,3930.77,4247.69,4613.85,4425.13,4610.26,1692,1710,0.138,0,0,0,0,
62,4076.41,4162.56,4080,3861.54,4385.13,4166.67,4568.21,4553.85,4307.69,3943.59,4250.77,4618.97,4428.21,4606.67,1693,1710,0.145,0,0,0,0,
63,4071.28,4156.92,4074.36,3858.46,4379.49,4161.03,4567.69,4554.87,4312.31,3941.54,4246.15,4613.33,4427.18,4602.56,1692,1710,0.154,0,0,0,0,
64,4060,4141.03,4066.67,3847.69,4383.59,4149.74,4557.95,4541.54,4296.92,3924.1,4231.28,4597.44,4415.9,4598.46,1692,1711,0.161,0,0,0,0,
65,4067.69,4143.59,4073.33,3852.31,4395.9,4157.44,4558.97,4541.54,4296.41,3923.08,4235.9,4604.62,4417.95,4602.56,1691,1710,0.169,0,0,0,0,
66,4076.41,4169.74,4079.49,3862.56,4414.36,4167.69,4568.21,4552.31,4309.23,3931.79,4249.74,4620.51,4425.64,4606.15,1691,1711,0.177,0,0,0,0,
67,4070.26,4178.97,4075.38,3868.72,4420.51,4161.54,4566.67,4553.33,4303.59,3929.23,4243.59,4612.31,4417.95,4604.1,1690,1710,0.185,0,0,0,0,
68,4063.59,4162.05,4072.31,3866.15,4399.49,4159.49,4563.59,4548.72,4295.9,3924.1,4230.26,4600.51,4407.69,4598.46,1689,1711,0.192,0,0,0,0,
69,4064.1,4155.38,4071.79,3854.36,4390.26,4161.54,4564.1,4548.21,4302.05,3921.03,4229.23,4603.59,4406.15,4592.31,1690,1710,0.2,0,0,0,0,
70,4065.13,4155.9,4071.79,3853.33,4397.95,4151.28,4555.38,4540,4294.87,3912.31,4224.62,4603.08,4400.51,4585.64,1690,1711,0.209,0,0,0,0,
71,4065.64,4139.49,4074.36,3853.33,4392.31,4142.56,4548.72,4525.64,4277.44,3905.13,4212.31,4596.41,4392.82,4585.13,1691,1710,0.216,0,0,0,0,
72,4067.18,4142.56,4075.9,3851.79,4391.28,4147.69,4559.49,4529.74,4284.1,3913.33,4217.44,4600,4399.49,4594.36,1690,1711,0.225,0,0,0,0,
73,4069.23,4164.62,4074.36,3865.64,4399.49,4155.9,4569.74,4541.54,4297.44,3926.15,4231.28,4604.1,4410.26,4599.49,1692,1710,0.231,0,0,0,0,
74,4070.26,4165.13,4074.36,3871.28,4398.46,4157.95,4568.21,4542.05,4294.87,3926.15,4232.82,4602.56,4412.82,4596.92,1692,1711,0.24,0,0,0,0,
75,4072.82,4157.95,4080,3866.15,4400,4160.51,4566.67,4544.1,4301.03,3929.23,4234.87,4609.23,4411.79,4600,1692,1711,0.248,0,0,0,0,
76,4078.46,4160.51,4083.59,3865.64,4401.03,4167.69,4574.36,4555.9,4315.9,3945.64,4247.18,4620,4415.38,4605.64,1692,1710,0.255,0,0,0,0,
77,4075.38,4146.15,4080,3847.69,4383.08,4165.64,4573.85,4555.38,4309.23,3943.08,4246.67,4616.41,4413.85,4602.56,1692,1711,0.264,0,0,0,0,
78,4065.13,4135.38,4073.33,3841.54,4390.26,4155.38,4559.49,4543.59,4295.9,3928.21,4237.44,4609.23,4410.26,4601.54,1693,1710,0.27,0,0,0,0,
79,4061.54,4139.49,4067.69,3863.59,4396.92,4146.67,4553.85,4537.44,4292.31,3922.05,4231.28,4603.59,4404.1,4599.49,1692,1710,0.279,0,0,0,0,
80,4054.36,4128.21,4060,3847.18,4364.62,4141.03,4554.36,4532.82,4281.54,3915.38,4219.49,4591.28,4392.31,4583.59,1693,1709,0.286,0,0,0,0,
81,4050.26,4132.31,4057.44,3828.21,4375.9,4145.13,4554.36,4534.87,4282.05,3916.92,4217.95,4590.26,4396.41,4580.51,1691,1708,0.294,0,0,0,0,
82,4058.46,4155.9,4060,3857.95,4417.44,4161.54,4559.49,4542.56,4295.9,3929.23,4231.79,4601.54,4408.72,4591.28,1692,1707,0.302,0,0,0,0,
83,4066.15,4157.95,4062.05,3868.72,4410.26,4171.28,4564.62,4541.54,4291.79,3930.77,4236.41,4602.05,4409.74,4590.26,1690,1708,0.31,0,0,0,0,
84,4066.15,4150.26,4063.59,3850.77,4386.67,4157.44,4557.44,4536.41,4277.44,3924.1,4230.26,4596.41,4409.74,4584.62,1690,1707,0.317,0,0,0,0,
85,4066.67,4152.31,4067.18,3856.41,4387.18,4143.08,4551.79,4535.38,4277.95,3925.13,4230.77,4601.03,4412.31,4591.79,1690,1708,0.325,0,0,0,0,
86,4072.31,4160.51,4072.31,3865.64,4397.95,4150.26,4556.41,4537.95,4282.05,3927.69,4233.85,4608.21,4412.31,4600.51,1690,1709,0.333,0,0,0,0,
87,4078.97,4168.72,4075.9,3867.18,4409.74,4161.54,4559.49,4541.54,4281.54,3930.26,4233.85,4606.67,4414.36,4603.59,1690,1710,0.341,0,0,0,0,
88,4076.92,4161.54,4075.9,3866.15,4402.05,4156.92,4555.38,4536.41,4278.97,3927.69,4232.31,4601.54,4415.9,4601.03,1690,1710,0.349,0,0,0,0,
89,4067.18,4149.23,4074.87,3849.74,4377.44,4149.23,4551.28,4527.18,4273.85,3917.44,4228.72,4598.46,4409.23,4591.79,1690,1713,0.356,0,0,0,0,
90,4064.62,4152.82,4071.28,3848.21,4387.18,4149.74,4553.33,4531.28,4277.44,3922.05,4231.79,4602.05,4409.74,4592.31,1691,1712,0.365,0,0,0,0,
91,4073.33,4156.92,4067.18,3868.21,4405.13,4152.82,4555.9,4539.49,4281.54,3930.26,4235.9,4603.59,4414.36,4599.49,1690,1713,0.372,0,0,0,0,
92,4075.9,4158.46,4065.13,3868.21,4394.36,4154.36,4554.36,4534.36,4278.46,3922.05,4231.28,4598.97,4411.28,4592.82,1691,1712,0.38,0,0,0,0,
93,4069.74,4165.64,4069.23,3859.49,4394.87,4151.28,4552.31,4525.13,4278.97,3912.82,4224.62,4600,4405.64,4588.72,1691,1711,0.389,0,0,0,0,
94,4065.13,4161.03,4069.74,3866.67,4408.21,4148.72,4552.82,4524.1,4275.9,3904.62,4218.46,4601.03,4398.97,4594.36,1692,1711,0.396,0,0,0,0,
95,4060,4145.13,4058.46,3865.64,4394.87,4152.82,4551.28,4520,4261.54,3893.85,4207.69,4589.23,4387.18,4587.69,1692,1708,0.404,0,0,0,0,
96,4057.95,4145.64,4053.85,3853.85,4381.03,4152.82,4550.77,4516.92,4257.95,3897.95,4202.05,4583.08,4383.59,4578.46,1692,1709,0.411,0,0,0,0,
97,4069.23,4160.51,4068.21,3856.92,4393.85,4149.74,4554.36,4527.69,4272.82,3912.31,4214.36,4596.92,4401.03,4592.31,1692,1710,0.419,0,0,0,0,
98,4083.59,4160.51,4078.46,3873.85,4400,4154.36,4555.9,4540,4281.54,3920,4229.23,4604.62,4415.38,4609.23,1692,1711,0.427,0,0,0,0,
99,4084.1,4150.26,4074.87,3873.85,4385.13,4149.74,4552.31,4536.92,4275.38,3919.49,4223.08,4597.95,4409.23,4603.08,1693,1710,0.436,0,0,0,0,
100,4081.03,4157.44,4074.87,3856.92,4381.54,4137.95,4550.26,4530.77,4272.31,3921.03,4217.44,4602.05,4408.21,4599.49,1691,1712,0.444,0,0,0,0,
101,4086.15,4172.31,4078.46,3863.08,4393.85,4143.08,4554.36,4543.59,4286.15,3933.33,4238.97,4614.87,4425.13,4615.38,1692,1711,0.45,0,0,0,0,
102,4087.69,4173.33,4079.49,3882.05,4401.03,4156.41,4557.95,4554.36,4296.92,3946.67,4252.31,4620.51,4435.38,4621.03,1691,1712,0.459,0,0,0,0,
103,4083.59,4167.18,4079.49,3875.38,4398.97,4155.9,4557.44,4546.15,4288.21,3937.95,4238.97,4616.92,4428.72,4606.67,1692,1712,0.467,0,0,0,0,
104,4080,4159.49,4075.38,3859.49,4395.38,4150.77,4556.92,4537.44,4279.49,3922.05,4228.21,4608.72,4418.46,4600.51,1690,1712,0.474,0,0,0,0,
105,4076.41,4153.33,4070.26,3866.67,4399.49,4153.33,4556.92,4538.46,4283.59,3927.69,4231.28,4603.59,4409.23,4602.56,1691,1712,0.482,0,0,0,0,
106,4062.56,4149.74,4061.54,3864.1,4388.72,4154.36,4555.9,4538.97,4285.13,3925.13,4219.49,4592.31,4395.9,4587.69,1691,1710,0.489,0,0,0,0,
107,4048.72,4138.97,4050.77,3844.1,4374.36,4152.31,4554.36,4533.85,4278.97,3907.69,4198.97,4576.92,4385.13,4571.79,1690,1709,0.497,0,0,0,0,
108,4051.28,4136.41,4049.23,3844.1,4391.79,4152.31,4554.36,4536.41,4284.62,3910.77,4201.03,4579.49,4387.69,4578.97,1692,1708,0.506,0,0,0,0,
109,4063.08,4152.31,4060.51,3861.54,4412.31,4155.9,4555.9,4541.54,4294.36,3927.69,4221.54,4595.9,4404.1,4595.9,1690,1709,0.514,0,0,0,0,
110,4073.85,4158.97,4075.38,3864.1,4393.85,4156.41,4557.44,4542.56,4289.23,3929.74,4232.31,4605.13,4415.38,4603.08,1691,1710,0.521,0,0,0,0,
111,4076.41,4145.13,4078.97,3854.87,4369.23,4147.18,4556.41,4538.97,4278.46,3922.56,4229.23,4602.05,4408.72,4601.54,1691,1711,0.53,0,0,0,0,
112,4073.33,4145.64,4069.74,3865.13,4388.21,4141.03,4553.33,4535.9,4276.41,3922.56,4226.67,4600,4405.64,4601.03,1692,1711,0.536,0,0,0,0,
113,4071.79,4161.54,4066.67,3878.46,4406.15,4148.21,4553.33,4538.97,4285.64,3925.64,4231.28,4602.56,4414.87,4605.13,1691,1712,0.544,0,0,0,0,
114,4072.31,4162.56,4067.69,3869.23,4399.49,4156.41,4556.92,4542.05,4291.79,3927.18,4232.31,4605.13,4418.97,4604.62,1693,1712,0.552,0,0,0,0,
115,4073.85,4150.77,4065.13,3858.46,4394.36,4152.31,4557.95,4540,4284.62,3924.1,4224.62,4602.56,4413.33,4600.51,1692,1711,0.56,0,0,0,0,
116,4075.9,4149.23,4070.26,3859.49,4384.1,4152.31,4556.92,4535.9,4274.87,3915.9,4215.9,4602.05,4410.26,4601.54,1693,1713,0.568,0,0,0,0,
117,4077.44,4156.92,4076.92,3866.67,4380.51,4157.95,4557.44,4538.97,4285.13,3912.31,4221.03,4606.15,4411.79,4605.13,1693,1710,0.575,0,0,0,0,
118,4067.18,4151.28,4068.72,3864.62,4390.26,4144.62,4555.38,4543.08,4295.9,3912.82,4226.15,4601.03,4410.26,4603.08,1692,1711,0.583,0,0,0,0,
119,4060.51,4140,4061.54,3850.26,4385.64,4131.79,4551.28,4537.95,4283.08,3915.9,4217.44,4594.36,4407.18,4600.51,1694,1708,0.591,0,0,0,0,
120,4069.23,4148.72,4066.67,3851.28,4393.33,4144.1,4552.82,4534.87,4282.05,3924.1,4218.97,4597.95,4409.23,4601.03,1692,1707,0.599,0,0,0,0,
121,4075.38,4162.56,4070.26,3877.44,4420.51,4158.46,4556.92,4543.59,4303.59,3931.79,4232.31,4604.1,4416.41,4605.64,1694,1707,0.607,0,0,0,0,
122,4067.18,4143.59,4066.15,3870.77,4389.23,4155.38,4555.38,4537.95,4289.74,3923.59,4224.1,4595.38,4411.28,4600,1693,1706,0.615,0,0,0,0,
123,4062.05,4130.26,4066.67,3840,4366.67,4152.82,4551.79,4521.03,4257.95,3909.23,4210.77,4586.15,4400,4588.72,1694,1708,0.622,0,0,0,0,
124,4067.69,4155.9,4069.23,3855.9,4401.54,4150.26,4552.31,4522.56,4264.62,3909.23,4215.38,4594.36,4400.51,4591.79,1692,1708,0.63,0,0,0,0,
125,4067.69,4155.9,4063.08,3882.05,4380,4144.1,4552.82,4526.67,4274.87,3909.23,4216.41,4595.38,4400,4596.41,1693,1710,0.639,0,0,0,0,
126,4066.15,4137.44,4061.54,3870.26,4353.33,4146.15,4551.28,4521.54,4266.67,3910.77,4217.44,4591.28,4401.54,4597.95,1692,1710,0.647,0,0,0,0,
127,4072.31,4153.33,4069.74,3860,4407.18,4150.77,4552.82,4527.69,4280,3925.13,4232.31,4602.56,4420,4612.82,1691,1712,0.654,0,0,0,0,
128,4076.92,4171.28,4070.26,3871.79,4431.28,4152.31,4555.38,4541.03,4295.9,3935.38,4238.97,4610.26,4434.36,4620.51,1692,1710,0.662,0,0,0,0,
0,4075.9,4158.97,4066.15,3867.18,4403.59,4153.33,4553.85,4537.95,4285.64,3929.74,4234.36,4603.08,4430.26,4608.72,1691,1712,0.67,0,0,0,0,
1,4072.31,4146.67,4067.69,3855.9,4402.56,4152.31,4550.77,4526.67,4276.41,3924.62,4229.23,4596.92,4418.46,4604.62,1693,1711,0.677,0,0,0,0,
2,4068.72,4155.38,4066.15,3867.18,4404.1,4153.85,4552.82,4526.67,4280,3923.59,4221.03,4597.44,4411.28,4606.67,1692,1710,0.685,0,0,0,0,
3,4066.67,4156.92,4067.18,3863.08,4392.31,4157.44,4555.38,4535.9,4285.13,3926.67,4222.05,4599.49,4410.26,4600.51,1693,1708,0.693,0,0,0,0,
4,4065.64,4139.49,4073.85,3843.59,4387.69,4154.87,4554.87,4540.51,4289.74,3924.62,4224.62,4596.41,4409.74,4597.95,1692,1706,0.701,0,0,0,0,
5,4057.95,4133.33,4064.1,3853.33,4371.79,4153.33,4554.36,4533.85,4279.49,3912.82,4216.41,4587.18,4405.64,4598.97,1692,1706,0.708,0,0,0,0,
6,4059.49,4149.74,4054.87,3882.56,4375.9,4150.26,4552.82,4524.1,4262.05,3914.36,4219.49,4590.26,4408.72,4597.44,1692,1707,0.716,0,0,0,0,
7,4072.82,4160.51,4067.69,3889.23,4408.72,4140,4549.74,4525.64,4263.08,3927.69,4233.85,4602.05,4415.38,4601.03,1693,1710,0.724,0,0,0,0,
8,4074.87,4152.31,4078.46,3875.9,4421.03,4141.03,4550.77,4534.87,4277.95,3927.69,4235.38,4603.59,4418.97,4606.67,1692,1710,0.732,0,0,0,0,
9,4066.15,4148.72,4073.33,3863.59,4406.15,4152.31,4554.36,4538.46,4281.03,3923.08,4228.21,4601.03,4416.41,4603.59,1691,1713,0.74,0,0,0,0,
10,4067.18,4158.46,4072.31,3864.1,4400,4154.36,4555.38,4536.92,4278.46,3927.69,4229.74,4601.03,4413.85,4597.95,1689,1713,0.749,0,0,0,0,
11,4077.44,4156.41,4080.51,3875.38,4398.97,4152.82,4555.38,4539.49,4281.03,3931.28,4231.28,4602.05,4411.79,4599.49,1689,1712,0.755,0,0,0,0,
12,4073.85,4142.56,4077.44,3869.23,4384.1,4154.36,4556.41,4538.97,4282.56,3923.08,4220,4599.49,4402.56,4602.56,1689,1711,0.764,0,0,0,0,
13,4060,4148.21,4063.08,3857.44,4381.54,4153.33,4555.9,4537.95,4280,3917.44,4215.9,4594.36,4400,4598.97,1690,1710,0.771,0,0,0,0,
14,4058.46,4156.92,4059.49,3865.13,4394.87,4151.28,4556.41,4542.05,4278.97,3922.05,4227.18,4596.92,4409.74,4598.46,1689,1708,0.779,0,0,0,0,
15,4064.1,4150.26,4065.64,3877.44,4403.59,4154.36,4557.44,4543.59,4285.64,3927.69,4228.72,4603.08,4411.28,4602.56,1691,1707,0.787,0,0,0,0,
16,4062.56,4161.03,4064.1,3880,4403.59,4158.46,4556.92,4541.54,4288.72,3924.1,4221.54,4601.54,4403.59,4603.08,1691,1706,0.794,0,0,0,0,
17,4066.15,4157.44,4066.67,3868.21,4384.62,4157.44,4555.9,4539.49,4280.51,3917.44,4226.15,4600.51,4404.62,4600.51,1692,1707,0.802,0,0,0,0,
18,4078.46,4134.87,4079.49,3859.49,4372.82,4152.31,4553.85,4539.49,4277.44,3920,4232.31,4608.21,4410.26,4603.08,1693,1706,0.81,0,0,0,0,
19,4073.33,4155.9,4073.33,3869.74,4390.77,4151.79,4555.38,4544.62,4285.13,3926.67,4231.28,4612.31,4412.82,4611.28,1691,1708,0.818,0,0,0,0,
20,4058.46,4173.85,4056.41,3860.51,4400,4152.82,4557.95,4545.64,4285.64,3930.26,4233.85,4606.15,4414.87,4611.28,1693,1709,0.826,0,0,0,0,
21,4067.18,4141.03,4064.62,3830.77,4387.18,4150.26,4556.92,4540,4278.97,3924.1,4232.82,4600.51,4411.79,4602.05,1691,1710,0.834,0,0,0,0,
22,4076.92,4132.82,4077.95,3847.69,4392.82,4154.36,4556.92,4540.51,4280,3916.92,4228.72,4602.56,4408.21,4599.49,1693,1711,0.841,0,0,0,0,
23,4064.1,4163.59,4062.56,3890.77,4399.49,4157.95,4558.97,4543.59,4282.05,3918.97,4229.23,4601.54,4405.64,4602.05,1692,1710,0.849,0,0,0,0,
24,4057.95,4172.31,4051.79,3882.56,4393.85,4152.82,4557.95,4541.03,4286.15,3925.64,4229.23,4597.95,4404.1,4602.56,1691,1711,0.857,0,0,0,0,
25,4075.9,4166.15,4069.74,3860,4398.46,4148.72,4556.41,4541.03,4290.77,3929.74,4233.33,4604.62,4413.85,4610.77,1691,1710,0.865,0,0,0,0,
26,4082.56,4169.23,4077.95,3872.31,4388.21,4153.33,4555.9,4542.05,4287.69,3921.54,4234.87,4610.26,4415.38,4618.97,1692,1709,0.873,0,0,0,0,
27,4068.72,4165.64,4062.05,3875.9,4376.41,4151.79,4553.85,4537.95,4276.41,3908.21,4223.59,4603.59,4400.51,4608.72,1692,1708,0.88,0,0,0,0,
28,4064.1,4159.49,4055.9,3858.46,4393.85,4139.49,4550.26,4533.33,4265.13,3900.51,4214.36,4593.85,4391.28,4594.87,1691,1709,0.888,0,0,0,0,
29,4073.85,4164.1,4069.23,3855.9,4394.87,4144.62,4553.85,4536.41,4268.72,3912.31,4225.64,4603.08,4402.05,4603.08,1692,1708,0.896,0,0,0,0,
30,4079.49,4171.79,4081.03,3863.59,4371.79,4156.41,4558.46,4541.54,4283.08,3929.23,4239.49,4617.95,4414.87,4618.97,1691,1709,0.904,0,0,0,0,
31,4074.87,4168.72,4073.85,3865.13,4375.9,4143.59,4551.79,4537.95,4281.54,3924.1,4235.38,4610.26,4410.77,4614.36,1692,1709,0.912,0,0,0,0,
32,4071.28,4167.69,4065.64,3853.85,4398.46,4135.9,4548.21,4532.82,4270.77,3916.41,4228.21,4602.05,4407.18,4607.69,1691,1709,0.92,0,0,0,0,
33,4076.92,4172.31,4072.31,3849.23,4400.51,4151.28,4554.36,4537.95,4277.95,3926.15,4235.38,4610.26,4415.38,4617.44,1692,1711,0.927,0,0,0,0,
34,4081.54,4169.74,4073.85,3868.72,4389.23,4152.82,4553.85,4540.51,4284.1,3929.23,4238.46,4610.26,4413.85,4616.41,1692,1709,0.935,0,0,0,0,
35,4073.33,4167.18,4061.54,3885.13,4384.1,4141.54,4544.1,4527.69,4269.74,3912.31,4222.56,4597.95,4398.97,4600.51,1691,1711,0.943,0,0,0,0,
36,4063.08,4174.87,4054.36,3883.59,4391.28,4150.77,4548.21,4521.54,4268.72,3906.15,4216.92,4596.92,4398.46,4600,1691,1711,0.951,0,0,0,0,
37,4071.79,4181.54,4059.49,3871.28,4397.95,4162.05,4552.82,4525.64,4277.95,3912.31,4231.79,4603.08,4406.15,4610.26,1691,1711,0.959,0,0,0,0,
38,4080.51,4181.54,4066.15,3865.13,4389.23,4152.82,4543.08,4526.67,4277.44,3911.28,4231.28,4600.51,4400,4604.62,1691,1709,0.966,0,0,0,0,
39,4068.72,4162.05,4066.15,3860,4375.38,4139.49,4539.49,4526.15,4277.95,3907.18,4213.33,4597.95,4392.31,4593.85,1690,1709,0.975,0,0,0,0,
40,4065.64,4144.62,4068.72,3846.15,4380,4140,4549.23,4528.72,4276.92,3908.21,4212.31,4598.46,4395.9,4600.51,1692,1707,0.982,0,0,0,0,
41,4080.51,4175.38,4075.9,3860,4400,4150.26,4554.87,4529.74,4268.72,3912.31,4225.64,4602.56,4403.08,4612.82,1691,1707,0.99,0,0,0,0,
42,4077.44,4210.26,4072.31,3892.31,4397.44,4149.23,4550.26,4524.62,4263.08,3912.31,4225.64,4603.08,4402.05,4609.23,1693,1707,0.998,0,0,0,0,
43,4065.13,4194.36,4061.54,3892.82,4371.79,4142.56,4542.05,4521.03,4263.08,3906.15,4216.41,4597.95,4395.9,4600,1692,1707,1.006,0,0,0,0,
44,4068.21,4183.08,4062.05,3876.92,4375.38,4144.1,4540,4520.51,4260.51,3905.13,4214.36,4596.92,4392.82,4598.97,1692,1709,1.013,0,0,0,0,
45,4076.92,4200.51,4072.31,3873.33,4402.05,4147.69,4546.67,4523.59,4262.05,3910.26,4224.62,4602.05,4404.1,4605.64,1693,1710,1.022,0,0,0,0,
46,4080.51,4177.44,4076.92,3874.36,4393.85,4148.21,4552.31,4528.21,4269.74,3912.82,4232.31,4606.15,4410.26,4616.41,1692,1712,1.029,0,0,0,0,
47,4080.51,4152.82,4075.38,3870.77,4371.28,4151.79,4551.28,4527.18,4275.9,3914.87,4230.26,4603.59,4403.59,4620.51,1693,1712,1.037,0,0,0,0,
48,4081.03,4202.56,4075.9,3868.21,4382.56,4153.85,4553.33,4530.26,4278.97,3923.59,4228.72,4601.03,4405.64,4614.87,1690,1712,1.045,0,0,0,0,
49,4082.05,4233.33,4078.46,3872.31,4401.03,4143.59,4550.77,4534.87,4280,3929.23,4233.33,4606.15,4414.87,4613.85,1691,1712,1.053,0,0,0,0,
50,4076.41,4184.62,4073.33,3889.74,4389.23,4136.41,4541.03,4530.77,4280.51,3921.54,4233.85,4606.15,4409.74,4616.92,1690,1712,1.06,0,0,0,0,
51,4068.72,4149.74,4065.64,3878.97,4361.54,4145.13,4542.05,4521.03,4273.85,3909.23,4220,4598.46,4394.87,4607.18,1690,1709,1.069,0,0,0,0,
52,4063.08,4171.79,4063.59,3851.28,4367.18,4155.9,4552.82,4526.67,4273.33,3906.67,4209.74,4591.28,4392.82,4593.85,1690,1707,1.076,0,0,0,0,
53,4061.03,4192.82,4061.54,3875.9,4401.03,4156.41,4553.85,4540,4286.67,3915.38,4218.97,4593.33,4396.41,4600,1691,1704,1.084,0,0,0,0,
54,4070.26,4190.26,4065.13,3899.49,4397.44,4152.82,4550.77,4540.51,4288.72,3922.56,4231.28,4605.64,4402.05,4617.95,1690,1703,1.092,0,0,0,0,
55,4073.85,4182.05,4075.38,3851.28,4366.15,4151.79,4554.87,4536.41,4277.44,3921.54,4231.79,4608.72,4408.72,4618.97,1690,1705,1.099,0,0,0,0,
56,4067.18,4174.36,4076.92,3836.92,4372.31,4153.85,4556.41,4540,4278.97,3924.1,4232.31,4605.64,4413.33,4609.74,1691,1706,1.107,0,0,0,0,
57,4070.26,4179.49,4074.87,3874.36,4382.05,4147.18,4549.23,4542.56,4284.1,3928.72,4233.85,4609.23,4414.87,4614.87,1690,1708,1.116,0,0,0,0,
58,4076.92,4184.62,4077.95,3865.13,4355.9,4140.51,4548.21,4536.92,4279.49,3920.51,4233.33,4609.74,4409.74,4617.95,1691,1708,1.124,0,0,0,0,
59,4073.33,4156.92,4076.92,3855.9,4349.74,4149.23,4553.33,4534.36,4280,3914.36,4234.87,4604.62,4407.18,4612.31,1690,1710,1.131,0,0,0,0,
60,4071.28,4139.49,4069.23,3895.9,4374.87,4149.23,4547.69,4535.9,4283.08,3923.08,4230.26,4603.08,4404.62,4613.33,1691,1711,1.139,0,0,0,0,
61,4064.62,4184.1,4060.51,3900.51,4395.38,4144.62,4544.62,4538.97,4287.69,3930.26,4225.13,4602.05,4406.15,4608.21,1690,1712,1.146,0,0,0,0,
62,4056.41,4214.36,4055.9,3865.64,4396.92,4155.38,4552.82,4538.46,4289.23,3922.56,4226.67,4594.87,4404.62,4598.46,1691,1713,1.154,0,0,0,0,
63,4061.03,4191.28,4061.03,3854.36,4383.59,4160,4554.87,4530.26,4277.44,3912.31,4223.08,4591.28,4394.87,4602.05,1691,1712,1.162,0,0,0,0,
64,4062.05,4161.54,4062.56,3849.23,4370.77,4151.79,4546.15,4522.56,4267.69,3909.74,4213.33,4585.64,4390.77,4598.97,1691,1710,1.17,0,0,0,0,
65,4061.54,4130.77,4059.49,3858.46,4365.13,4153.33,4542.56,4519.49,4270.77,3905.13,4211.28,4582.56,4389.74,4599.49,1691,1709,1.179,0,0,0,0,
66,4078.97,4125.13,4072.82,3865.13,4357.95,4157.95,4550.77,4527.69,4281.03,3907.69,4216.92,4597.44,4385.64,4623.59,1692,1707,1.185,0,0,0,0,
67,4082.56,4176.41,4081.03,3840.51,4363.08,4153.85,4552.82,4532.31,4283.08,3911.28,4215.38,4603.08,4384.62,4616.41,1692,1708,1.194,0,0,0,0,
68,4072.31,4205.64,4069.23,3847.18,4390.26,4155.38,4544.62,4524.1,4280.51,3910.77,4220.51,4595.38,4402.56,4599.49,1693,1708,1.201,0,0,0,0,
69,4082.05,4180.51,4069.74,3888.21,4395.9,4155.38,4540,4524.1,4276.41,3916.41,4232.82,4604.62,4421.54,4625.13,1692,1710,1.21,0,0,0,0,
70,4088.72,4189.74,4078.46,3911.28,4385.13,4150.77,4548.21,4535.9,4278.97,3927.69,4235.38,4618.46,4423.59,4635.38,1692,1710,1.217,0,0,0,0,
71,4070.26,4192.82,4073.33,3871.28,4384.1,4152.82,4555.38,4542.05,4292.82,3932.82,4230.77,4613.33,4420.51,4614.36,1691,1712,1.225,0,0,0,0,
72,4054.87,4158.97,4065.13,3818.46,4367.69,4157.44,4554.87,4541.03,4294.87,3925.64,4227.18,4598.97,4418.97,4611.28,1692,1713,1.232,0,0,0,0,
73,4057.95,4160.51,4061.54,3848.72,4350.77,4153.33,4554.36,4536.92,4280.51,3912.82,4222.05,4591.79,4416.41,4610.26,1691,1713,1.24,0,0,0,0,
74,4062.56,4182.56,4060,3909.23,4366.15,4151.79,4553.33,4530.77,4273.33,3905.64,4214.36,4590.26,4410.77,4601.03,1690,1714,1.249,0,0,0,0,
75,4069.74,4184.62,4068.21,3894.87,4380,4157.95,4554.36,4532.31,4284.1,3910.77,4221.03,4603.08,4412.31,4617.44,1691,1710,1.256,0,0,0,0,
76,4075.9,4169.74,4069.74,3886.67,4361.03,4157.44,4554.87,4532.82,4287.18,3913.85,4227.69,4613.85,4411.28,4628.21,1690,1711,1.264,0,0,0,0,
77,4077.44,4174.36,4066.15,3907.69,4355.9,4152.31,4551.79,4527.69,4281.54,3912.31,4222.56,4606.15,4403.59,4618.97,1691,1710,1.272,0,0,0,0,
78,4074.87,4188.21,4081.03,3849.23,4352.31,4154.87,4553.85,4525.64,4277.95,3910.26,4207.69,4600,4401.03,4614.36,1691,1710,1.279,0,0,0,0,
79,4069.74,4185.64,4087.18,3824.62,4333.33,4155.9,4554.36,4523.08,4274.36,3904.62,4202.56,4597.95,4419.49,4610.26,1692,1710,1.287,0,0,0,0,
80,4071.28,4197.44,4071.28,3911.79,4351.79,4152.82,4550.26,4526.67,4276.92,3912.31,4225.64,4604.1,4446.15,4625.13,1691,1711,1.296,0,0,0,0,
81,4074.87,4211.79,4062.05,3956.41,4384.62,4153.33,4549.23,4536.92,4282.56,3921.03,4240,4612.82,4444.1,4641.03,1693,1710,1.304,0,0,0,0,
82,4075.9,4188.21,4069.74,3907.69,4365.64,4155.38,4550.77,4540,4284.62,3913.85,4225.64,4614.36,4411.79,4631.28,1692,1710,1.311,0,0,0,0,
83,4075.38,4157.44,4083.08,3859.49,4333.33,4151.79,4550.77,4534.87,4278.46,3907.69,4215.38,4617.95,4398.46,4625.13,1692,1712,1.319,0,0,0,0,
84,4072.31,4189.74,4080.51,3890.77,4351.79,4149.23,4549.23,4530.26,4273.33,3909.74,4220.51,4611.28,4435.38,4630.77,1691,1711,1.326,0,0,0,0,
85,4062.05,4245.64,4054.36,3961.03,4380.51,4154.87,4551.28,4532.82,4284.1,3912.82,4227.18,4589.74,4476.92,4617.95,1690,1713,1.334,0,0,0,0,
86,4054.87,4249.23,4046.67,3978.46,4373.85,4160,4556.41,4544.1,4298.46,3918.46,4236.41,4587.69,4483.08,4606.15,1691,1709,1.342,0,0,0,0,
87,4057.44,4207.69,4065.64,3920.51,4335.9,4158.97,4555.38,4540.51,4286.15,3911.79,4226.15,4606.67,4454.87,4620.51,1689,1709,1.351,0,0,0,0,
88,4060,4192.31,4072.31,3865.64,4311.28,4155.38,4553.85,4523.59,4272.31,3894.36,4201.03,4607.18,4431.28,4628.21,1690,1706,1.359,0,0,0,0,
89,4045.64,4240.51,4055.9,3888.21,4341.03,4156.41,4552.82,4519.49,4278.97,3888.72,4203.59,4591.28,4432.82,4617.95,1689,1705,1.365,0,0,0,0,
90,4033.85,4250.26,4043.59,3951.28,4366.67,4165.13,4545.13,4520.51,4271.79,3891.28,4215.9,4584.62,4442.05,4604.1,1690,1706,1.374,0,0,0,0,
91,4063.08,4203.59,4055.9,3991.28,4356.41,4171.79,4544.1,4518.46,4257.95,3900.51,4221.54,4586.67,4457.95,4597.95,1690,1707,1.381,0,0,0,0,
92,4082.05,4234.87,4065.64,3984.1,4353.85,4163.59,4554.36,4521.03,4268.72,3913.33,4231.79,4596.92,4464.62,4610.77,1691,1709,1.389,0,0,0,0,
93,4075.9,4271.79,4074.87,3937.95,4354.87,4151.28,4557.44,4529.74,4282.05,3910.77,4236.41,4614.36,4447.69,4649.74,1690,1710,1.397,0,0,0,0,
94,4073.33,4242.05,4085.64,3921.54,4345.13,4149.74,4551.79,4535.9,4278.97,3904.1,4232.31,4616.92,4445.64,4654.87,1691,1711,1.405,0,0,0,0,
95,4052.31,4269.23,4056.92,3985.13,4361.03,4153.33,4550.26,4536.41,4280.51,3917.95,4242.56,4598.46,4483.59,4608.21,1692,1710,1.412,0,0,0,0,
96,4029.23,4314.36,4029.74,4020,4381.54,4158.46,4552.31,4536.41,4289.74,3930.77,4255.9,4594.36,4496.92,4605.64,1691,1713,1.42,0,0,0,0,
97,4048.72,4262.05,4057.95,3956.41,4359.49,4163.59,4555.9,4537.95,4288.21,3923.08,4242.56,4613.85,4470.26,4639.49,1693,1711,1.429,0,0,0,0,
98,4075.9,4229.74,4080.51,3937.44,4332.31,4166.15,4557.44,4530.77,4279.49,3909.23,4230.77,4615.9,4462.56,4629.23,1692,1712,1.436,0,0,0,0,
99,4062.56,4275.38,4058.97,3970.77,4335.9,4168.21,4554.87,4519.49,4275.38,3898.97,4236.41,4604.1,4445.64,4611.28,1693,1712,1.444,0,0,0,0,
100,4043.08,4277.95,4048.21,3960,4352.31,4169.74,4556.92,4529.23,4283.08,3900,4225.13,4606.15,4414.87,4621.54,1693,1711,1.451,0,0,0,0,
101,4033.33,4262.05,4045.13,3995.38,4364.62,4169.74,4556.41,4535.9,4285.13,3901.54,4205.64,4592.82,4435.9,4601.03,1694,1711,1.459,0,0,0,0,
102,4047.18,4290.77,4046.15,4040.51,4361.03,4165.13,4552.31,4525.64,4275.38,3900,4220,4577.95,4482.56,4587.18,1694,1711,1.467,0,0,0,0,
103,4069.74,4293.85,4068.72,3952.82,4337.95,4154.36,4552.82,4527.18,4282.05,3908.21,4235.9,4594.36,4474.87,4616.41,1693,1711,1.475,0,0,0,0,
104,4042.56,4290.26,4060,3910.26,4342.56,4155.38,4554.87,4541.03,4300.51,3926.15,4231.28,4601.54,4457.95,4611.79,1693,1710,1.483,0,0,0,0,
105,4022.56,4307.69,4037.44,4011.28,4369.74,4166.67,4553.33,4538.97,4296.92,3929.23,4242.05,4592.82,4472.82,4592.31,1693,1711,1.492,0,0,0,0,
106,4055.9,4290.26,4057.44,4034.87,4364.62,4169.74,4552.82,4534.87,4289.74,3922.05,4255.9,4608.72,4478.97,4619.49,1693,1711,1.498,0,0,0,0,
107,4082.56,4271.79,4082.05,3977.44,4351.28,4165.13,4556.41,4547.18,4302.05,3929.74,4254.36,4625.64,4481.54,4641.54,1691,1714,1.507,0,0,0,0,
108,4061.54,4294.87,4069.23,3983.08,4334.87,4158.46,4554.87,4544.62,4294.36,3925.64,4248.21,4608.21,4470.26,4624.1,1693,1711,1.514,0,0,0,0,
109,4035.9,4312.31,4050.77,3997.44,4326.67,4156.92,4551.79,4531.79,4277.95,3911.28,4239.49,4595.38,4449.23,4609.74,1690,1711,1.522,0,0,0,0,
110,4036.92,4304.1,4052.31,3985.64,4361.54,4165.13,4554.87,4545.13,4296.92,3922.56,4241.54,4604.1,4465.13,4609.74,1692,1710,1.53,0,0,0,0,
111,4042.05,4314.36,4048.72,3992.82,4394.36,4169.23,4556.41,4557.95,4309.23,3933.85,4252.31,4600.51,4488.72,4596.41,1690,1709,1.537,0,0,0,0,
112,4045.64,4317.95,4048.72,3983.08,4363.59,4166.67,4555.38,4542.56,4284.62,3915.9,4243.59,4592.82,4463.08,4592.31,1690,1711,1.545,0,0,0,0,
113,4044.62,4291.79,4062.05,3962.56,4342.05,4166.67,4557.44,4532.31,4275.38,3904.1,4228.72,4598.97,4437.95,4606.67,1690,1711,1.553,0,0,0,0,
114,4034.36,4293.85,4055.38,3997.95,4377.44,4169.74,4558.97,4544.1,4296.41,3916.92,4233.33,4594.36,4461.54,4595.9,1690,1711,1.561,0,0,0,0,
115,4037.95,4307.69,4040.51,4034.36,4383.59,4168.21,4552.82,4541.03,4289.74,3913.85,4232.31,4585.13,4453.85,4584.62,1691,1710,1.569,0,0,0,0,
116,4053.85,4301.54,4051.79,4016.92,4362.05,4166.15,4552.31,4533.33,4273.85,3904.62,4225.13,4598.97,4430.77,4609.23,1692,1710,1.577,0,0,0,0,
117,4055.38,4296.92,4067.18,3989.74,4362.05,4166.15,4560,4541.54,4289.74,3917.44,4235.9,4611.28,4452.31,4628.72,1691,1709,1.584,0,0,0,0,
118,4063.59,4284.1,4073.33,3991.79,4371.28,4171.79,4561.03,4541.03,4293.33,3924.62,4248.72,4613.33,4452.82,4621.54,1692,1711,1.592,0,0,0,0,
119,4077.95,4258.97,4077.95,3978.97,4342.05,4165.13,4553.33,4524.1,4268.21,3912.31,4237.95,4609.74,4427.18,4610.77,1692,1711,1.6,0,0,0,0,
120,4053.33,4281.03,4065.13,3950.26,4310.77,4148.21,4550.26,4516.41,4262.05,3902.56,4216.92,4591.28,4433.85,4596.41,1692,1712,1.608,0,0,0,0,
121,4038.97,4329.23,4056.41,3984.1,4350.77,4160.51,4555.9,4529.74,4285.13,3910.77,4217.44,4591.28,4437.44,4608.21,1691,1713,1.616,0,0,0,0,
122,4072.82,4281.54,4073.33,4017.95,4376.41,4176.41,4556.92,4541.54,4301.54,3923.59,4232.31,4621.54,4418.97,4661.03,1691,1712,1.624,0,0,0,0,
123,4088.21,4220.51,4086.15,3995.9,4352.31,4158.97,4553.33,4541.03,4302.56,3925.64,4240,4628.21,4437.44,4662.05,1690,1710,1.631,0,0,0,0,
124,4075.9,4252.82,4082.05,3990.26,4344.1,4153.33,4556.41,4538.97,4289.74,3914.36,4235.38,4606.67,4443.59,4607.69,1690,1709,1.639,0,0,0,0,
125,4057.44,4285.64,4066.67,3973.33,4338.46,4165.64,4555.9,4533.85,4277.95,3895.9,4213.85,4593.85,4393.33,4592.82,1689,1706,1.647,0,0,0,0,
126,4033.33,4266.15,4045.13,3939.49,4335.9,4169.74,4555.38,4538.97,4296.92,3904.1,4208.21,4587.18,4390.26,4600.51,1689,1707,1.655,0,0,0,0,
127,4043.59,4267.18,4049.23,3984.1,4366.15,4180.51,4565.13,4553.33,4318.97,3930.26,4240,4596.92,4446.15,4601.54,1690,1706,1.663,0,0,0,0,
128,4066.15,4329.23,4065.13,4044.62,4381.54,4183.59,4561.03,4551.28,4305.13,3930.26,4249.23,4613.85,4463.59,4617.44,1690,1708,1.67,0,0,0,0,
0,4052.82,4328.72,4059.49,4009.74,4364.62,4160.51,4544.1,4535.38,4282.05,3909.23,4216.41,4611.28,4422.56,4622.05,1691,1709,1.678,0,0,0,0,
1,4044.62,4236.92,4059.49,3970.77,4362.56,4156.92,4546.67,4535.38,4282.05,3903.59,4202.56,4600.51,4418.97,4591.79,1691,1710,1.686,0,0,0,0,
2,4056.92,4218.46,4067.18,3987.18,4360,4174.87,4562.56,4546.67,4292.82,3913.33,4220,4590.26,4476.41,4571.79,1691,1711,1.694,0,0,0,0,
3,4056.41,4296.92,4068.21,3996.41,4345.64,4171.79,4566.15,4552.82,4295.9,3913.85,4229.74,4589.74,4475.9,4591.79,1692,1711,1.702,0,0,0,0,
4,4050.26,4300,4066.67,3983.08,4347.18,4164.1,4566.15,4553.33,4295.38,3909.23,4229.23,4599.49,4427.69,4601.54,1691,1711,1.71,0,0,0,0,
5,4047.69,4258.46,4058.46,3997.95,4361.54,4169.23,4568.21,4547.69,4296.41,3908.21,4231.28,4603.59,4434.36,4591.79,1691,1711,1.717,0,0,0,0,
6,4034.36,4301.54,4037.95,4027.69,4365.13,4169.74,4564.62,4538.97,4293.85,3909.23,4234.36,4592.82,4462.56,4594.36,1690,1711,1.726,0,0,0,0,
7,4035.38,4304.62,4035.38,4002.05,4353.85,4170.77,4563.59,4540,4295.38,3909.74,4229.74,4580,4451.79,4590.26,1690,1710,1.734,0,0,0,0,
8,4053.33,4250.77,4052.31,3976.92,4362.56,4174.36,4567.69,4551.28,4305.13,3911.28,4221.03,4585.64,4436.41,4584.62,1689,1711,1.742,0,0,0,0,
9,4064.62,4278.97,4061.54,4023.59,4388.21,4172.31,4570.26,4556.41,4306.67,3912.31,4227.18,4610.26,4434.36,4621.03,1692,1710,1.749,0,0,0,0,
10,4065.64,4317.95,4062.05,4046.67,4374.36,4166.67,4562.05,4544.1,4293.85,3902.56,4237.95,4620.51,4425.64,4656.92,1691,1709,1.756,0,0,0,0,
11,4059.49,4284.1,4060,4009.23,4330.26,4166.67,4555.38,4538.46,4287.69,3892.82,4228.72,4603.08,4407.18,4626.67,1693,1709,1.764,0,0,0,0,
12,4065.13,4245.13,4066.67,3996.92,4334.36,4169.74,4562.05,4552.31,4295.38,3903.08,4216.92,4605.13,4410.26,4601.03,1692,1709,1.773,0,0,0,0,
13,4078.97,4257.95,4080,4000.51,4368.21,4167.18,4568.21,4558.97,4298.97,3912.82,4215.38,4624.1,4441.03,4626.15,1693,1711,1.781,0,0,0,0,
14,4070.26,4305.13,4074.87,3999.49,4373.33,4167.18,4567.18,4551.79,4292.31,3906.15,4212.31,4622.56,4438.97,4631.79,1694,1710,1.788,0,0,0,0,
15,4048.21,4313.33,4058.97,4023.59,4362.05,4170.26,4566.15,4550.26,4290.77,3903.59,4224.1,4602.05,4432.82,4608.21,1693,1712,1.796,0,0,0,0,
16,4052.82,4267.18,4056.41,4033.85,4363.08,4170.77,4568.21,4556.41,4300.51,3920,4248.72,4590.26,4469.23,4590.77,1693,1712,1.803,0,0,0,0,
17,4071.28,4238.46,4064.62,4022.05,4355.9,4168.72,4566.67,4554.36,4298.97,3919.49,4245.64,4609.74,4441.54,4612.31,1692,1712,1.811,0,0,0,0,
18,4073.33,4266.15,4070.77,4025.13,4347.18,4169.23,4566.67,4548.72,4290.26,3907.18,4225.13,4632.31,4390.77,4652.82,1692,1711,1.825,0,0,0,0,
19,4058.97,4297.44,4071.79,4008.21,4362.05,4170.26,4569.23,4551.28,4297.95,3919.49,4231.79,4610.77,4451.28,4629.74,1690,1711,1.827,0,0,0,0,
20,4042.05,4287.69,4061.03,3996.41,4367.69,4169.23,4562.05,4547.69,4300.51,3928.21,4241.03,4581.03,4501.03,4571.79,1690,1709,1.835,0,0,0,0,
21,4051.79,4263.08,4056.92,4038.97,4367.18,4168.21,4553.33,4538.97,4285.13,3911.28,4224.1,4598.46,4446.67,4587.18,1690,1709,1.844,0,0,0,0,
22,4066.15,4278.97,4063.08,4049.23,4380.51,4170.77,4553.33,4537.95,4279.49,3903.59,4224.1,4615.38,4430.77,4627.69,1691,1710,1.851,0,0,0,0,
23,4050.77,4322.56,4056.92,4002.05,4386.15,4173.33,4554.87,4540.51,4282.56,3910.77,4236.92,4600.51,4459.49,4609.74,1690,1709,1.859,0,0,0,0,
24,4036.41,4288.72,4048.21,3999.49,4372.82,4165.64,4552.31,4536.92,4278.46,3906.67,4224.62,4596.92,4434.36,4594.36,1690,1711,1.866,0,0,0,0,
25,4047.18,4237.95,4052.31,4046.15,4368.21,4156.92,4552.82,4534.87,4278.97,3904.1,4220,4603.59,4423.08,4609.23,1690,1711,1.874,0,0,0,0,
26,4061.03,4270.26,4062.05,4050.26,4369.23,4154.87,4553.85,4538.46,4283.59,3912.31,4232.31,4601.54,4445.64,4613.33,1690,1712,1.882,0,0,0,0,
27,4061.54,4295.9,4067.18,4023.08,4348.72,4152.31,4552.31,4537.44,4282.05,3909.74,4223.59,4598.46,4444.62,4612.82,1690,1712,1.89,0,0,0,0,
28,4056.41,4266.15,4063.08,4029.74,4343.08,4155.9,4553.85,4539.49,4286.15,3907.69,4216.92,4602.05,4430.26,4621.03,1690,1712,1.897,0,0,0,0,
29,4047.18,4270.77,4056.92,4046.67,4374.36,4168.72,4555.38,4539.49,4293.85,3918.46,4229.23,4605.64,4429.23,4610.77,1690,1712,1.906,0,0,0,0,
30,4056.92,4291.28,4067.69,4022.05,4389.23,4174.36,4555.38,4542.05,4297.95,3929.74,4236.41,4613.33,4434.87,4605.64,1689,1711,1.914,0,0,0,0,
31,4089.23,4238.97,4091.79,3997.44,4355.9,4168.72,4556.41,4547.69,4296.41,3923.08,4234.36,4626.67,4430.26,4641.03,1690,1707,1.921,0,0,0,0,
32,4082.56,4208.21,4084.62,4016.41,4343.59,4166.15,4557.44,4544.62,4294.36,3908.21,4222.56,4617.44,4429.74,4637.95,1689,1707,1.929,0,0,0,0,
33,4034.87,4266.15,4047.69,4045.13,4377.44,4168.21,4555.9,4537.95,4295.38,3909.23,4209.23,4593.85,4438.97,4589.23,1690,1706,1.936,0,0,0,0,
34,4026.15,4317.95,4040.51,4039.49,4388.21,4168.21,4553.85,4534.36,4290.26,3914.36,4217.44,4592.82,4449.74,4590.26,1691,1705,1.945,0,0,0,0,
35,4061.54,4273.85,4071.79,4007.18,4367.18,4166.15,4554.87,4531.28,4277.44,3905.13,4229.74,4613.85,4422.56,4634.36,1691,1707,1.952,0,0,0,0,
36,4071.79,4210.77,4084.1,4017.44,4362.05,4164.1,4554.36,4529.74,4275.38,3903.08,4230.26,4618.97,4402.56,4632.82,1692,1707,1.96,0,0,0,0,
37,4063.08,4236.92,4068.72,4060.51,4378.46,4167.18,4556.41,4544.1,4294.87,3926.15,4244.1,4608.72,4460.51,4608.72,1691,1710,1.969,0,0,0,0,
38,4073.85,4286.15,4070.26,4040.51,4373.33,4172.31,4562.05,4556.92,4304.62,3934.36,4245.13,4613.85,4478.46,4623.59,1693,1710,1.976,0,0,0,0,
39,4066.15,4258.46,4068.72,3987.18,4327.69,4169.74,4560,4542.56,4286.67,3910.77,4215.38,4611.79,4424.62,4629.74,1692,1710,1.984,0,0,0,0,
40,4050.77,4202.56,4062.05,3993.33,4312.31,4167.69,4554.87,4534.87,4282.05,3910.26,4215.9,4608.21,4428.21,4621.54,1692,1710,1.991,0,0,0,0,
41,4061.03,4232.31,4069.74,4022.56,4352.31,4170.26,4555.9,4546.15,4300.51,3936.41,4251.28,4613.85,4478.46,4619.49,1691,1711,2,0,0,0,0,
42,4062.56,4269.74,4067.18,4030.26,4370.77,4170.26,4556.41,4547.18,4305.13,3931.28,4249.23,4610.77,4454.36,4607.18,1691,1712,2.007,0,0,0,0,
43,4041.54,4257.95,4044.62,4033.85,4361.54,4168.72,4552.31,4535.38,4291.79,3910.77,4211.28,4598.46,4408.21,4592.31,1690,1711,2.015,0,0,0,0,
44,4048.72,4246.15,4050.26,4017.44,4378.46,4170.77,4554.36,4536.41,4293.33,3920,4213.33,4595.9,4443.59,4595.9,1690,1709,2.022,0,0,0,0,
45,4077.44,4230.77,4077.44,4010.26,4386.15,4170.77,4559.49,4545.13,4302.05,3929.23,4240,4602.56,4471.79,4620,1689,1709,2.03,0,0,0,0,
46,4074.87,4216.41,4075.9,4030.77,4350.26,4168.72,4555.38,4536.41,4287.69,3907.69,4223.08,4604.1,4427.18,4620.51,1690,1709,2.038,0,0,0,0,
47,4048.21,4240,4053.85,4036.92,4332.31,4170.26,4550.26,4525.64,4274.36,3896.92,4193.33,4600.51,4396.41,4600.51,1690,1710,2.046,0,0,0,0,
48,4036.41,4286.15,4040,4046.15,4363.59,4171.79,4550.26,4530.26,4282.05,3914.87,4221.03,4595.9,4444.62,4604.62,1692,1710,2.054,0,0,0,0,
49,4052.31,4284.1,4052.31,4037.44,4389.23,4171.79,4553.85,4541.03,4292.31,3930.77,4260,4609.23,4477.95,4633.85,1691,1711,2.062,0,0,0,0,
50,4069.74,4231.79,4073.33,4000,4369.23,4170.77,4554.36,4538.46,4288.21,3929.23,4242.56,4621.03,4434.36,4642.56,1693,1711,2.069,0,0,0,0,
51,4061.03,4190.26,4066.15,4009.74,4339.49,4167.18,4551.28,4531.28,4282.05,3914.36,4212.31,4607.18,4407.69,4612.31,1691,1712,2.077,0,0,0,0,
52,4055.9,4193.85,4058.46,4042.05,4347.18,4166.15,4557.95,4535.9,4288.21,3907.69,4214.36,4597.95,4441.54,4594.87,1692,1713,2.085,0,0,0,0,
53,4057.44,4237.95,4060.51,4038.46,4365.13,4169.74,4569.74,4542.56,4296.92,3920.51,4224.62,4593.85,4462.56,4591.28,1692,1711,2.093,0,0,0,0,
54,4051.79,4241.03,4057.44,4001.54,4347.69,4172.31,4571.28,4539.49,4294.87,3920.51,4216.92,4600.51,4403.59,4624.62,1691,1712,2.102,0,0,0,0,
55,4054.36,4195.9,4063.59,3967.18,4332.31,4169.74,4568.21,4539.49,4288.72,3908.21,4207.69,4621.03,4365.13,4662.05,1692,1709,2.109,0,0,0,0,
56,4057.95,4192.31,4067.18,4002.05,4359.49,4169.74,4567.69,4552.31,4299.49,3917.95,4213.33,4605.13,4424.62,4606.67,1690,1709,2.121,0,0,0,0,
57,4051.79,4242.56,4051.79,4068.21,4386.15,4172.82,4562.05,4555.9,4312.31,3931.79,4222.05,4573.85,4462.05,4548.21,1692,1707,2.125,0,0,0,0,
58,4047.69,4253.33,4044.62,4057.95,4370.26,4170.77,4555.9,4542.05,4302.56,3923.59,4220,4584.1,4438.97,4574.87,1691,1706,2.132,0,0,0,0,
59,4049.23,4202.56,4054.87,3994.87,4348.21,4167.18,4556.41,4534.87,4283.59,3915.38,4218.46,4597.95,4437.44,4601.54,1692,1707,2.14,0,0,0,0,
60,4062.56,4198.97,4066.67,3992.31,4360,4170.26,4555.9,4540,4279.49,3916.92,4222.56,4595.38,4433.33,4601.03,1691,1708,2.149,0,0,0,0,
61,4077.95,4227.18,4075.38,4029.23,4363.08,4170.77,4554.87,4534.87,4278.97,3908.72,4211.79,4606.15,4406.67,4625.13,1693,1708,2.155,0,0,0,0,
62,4064.62,4213.33,4067.18,4035.9,4336.41,4166.67,4554.87,4521.03,4267.18,3897.95,4202.05,4610.77,4401.03,4632.82,1692,1709,2.163,0,0,0,0,
63,4042.56,4206.15,4053.85,4006.15,4323.08,4165.13,4553.33,4520,4263.59,3898.97,4209.23,4598.97,4413.85,4606.15,1692,1711,2.171,0,0,0,0,
64,4060,4193.85,4076.41,3973.85,4344.1,4166.15,4561.03,4539.49,4284.62,3916.92,4225.13,4608.72,4426.67,4615.9,1692,1710,2.179,0,0,0,0,
65,4096.92,4176.92,4104.1,3980,4372.31,4167.69,4573.33,4558.46,4305.64,3938.46,4234.87,4635.9,4434.87,4648.72,1690,1712,2.187,0,0,0,0,
66,4095.38,4208.72,4094.87,4008.21,4363.59,4167.18,4568.21,4552.31,4300,3937.44,4226.67,4629.23,4426.15,4630.26,1691,1709,2.196,0,0,0,0,
67,4061.03,4256.41,4064.62,4037.95,4345.13,4168.21,4554.87,4540,4291.79,3926.67,4215.38,4600,4425.64,4596.41,1689,1709,2.202,0,0,0,0,
68,4060,4233.33,4060,4052.31,4347.18,4171.79,4553.33,4542.56,4298.46,3927.18,4211.79,4609.74,4430.77,4618.97,1690,1705,2.21,0,0,0,0,
69,4078.97,4196.92,4073.85,4012.31,4344.1,4171.28,4556.41,4542.56,4301.54,3924.1,4207.69,4617.44,4415.9,4624.1,1690,1704,2.219,0,0,0,0,
70,4067.18,4200,4068.72,3980.51,4351.28,4167.18,4553.85,4536.41,4290.77,3910.26,4193.85,4589.23,4404.62,4582.56,1691,1703,2.226,0,0,0,0,
71,4063.08,4175.38,4063.59,4014.87,4375.38,4172.31,4552.82,4535.9,4282.05,3904.62,4191.79,4588.72,4416.41,4591.28,1691,1704,2.235,0,0,0,0,
72,4078.46,4181.54,4076.92,4028.21,4372.82,4174.87,4555.38,4531.79,4276.41,3910.26,4198.97,4612.31,4431.28,4629.23,1691,1705,2.241,0,0,0,0,
73,4063.59,4236.92,4073.85,3977.44,4344.1,4159.49,4555.38,4521.54,4265.13,3909.74,4203.59,4600,4430.26,4615.38,1691,1706,2.249,0,0,0,0,
74,4051.28,4231.79,4065.13,3954.36,4346.67,4148.21,4553.33,4520.51,4263.08,3911.28,4212.82,4594.87,4412.31,4610.26,1691,1708,2.257,0,0,0,0,
75,4073.85,4180.51,4072.82,4004.1,4363.08,4156.41,4552.82,4526.15,4269.74,3915.9,4205.13,4618.97,4400,4633.33,1691,1708,2.265,0,0,0,0,
76,4075.9,4198.46,4065.64,4047.18,4350.26,4167.69,4553.33,4526.67,4271.79,3909.74,4187.18,4609.23,4405.64,4615.38,1690,1711,2.274,0,0,0,0,
77,4063.08,4231.79,4056.41,4030.26,4340,4168.72,4554.36,4528.21,4274.36,3905.64,4191.28,4593.85,4410.26,4593.33,1692,1710,2.281,0,0,0,0,
78,4072.31,4204.1,4072.82,3973.33,4353.85,4165.64,4556.41,4533.85,4279.49,3916.92,4207.18,4602.56,4424.1,4604.1,1690,1709,2.288,0,0,0,0,
79,4077.95,4214.36,4082.56,3971.28,4364.1,4170.26,4557.95,4540,4288.21,3929.23,4204.1,4603.08,4454.36,4614.36,1692,1708,2.297,0,0,0,0,
80,4076.92,4224.1,4072.82,4045.13,4350.77,4170.77,4557.44,4543.08,4297.44,3926.15,4197.95,4598.97,4440,4614.87,1691,1708,2.305,0,0,0,0,
81,4072.31,4184.1,4069.74,4028.21,4349.23,4164.1,4556.92,4539.49,4290.26,3921.03,4206.15,4614.87,4386.67,4635.9,1691,1709,2.312,0,0,0,0,
82,4054.36,4185.64,4068.21,3951.79,4358.97,4161.54,4554.36,4536.92,4281.03,3922.56,4203.59,4614.87,4390.77,4636.92,1691,1709,2.32,0,0,0,0,
83,4052.31,4211.28,4061.03,3975.9,4351.28,4167.18,4554.36,4540,4291.28,3927.69,4198.46,4591.28,4432.31,4586.67,1691,1710,2.327,0,0,0,0,
84,4079.49,4202.56,4071.79,3995.38,4346.15,4174.36,4562.56,4543.08,4291.79,3930.77,4209.74,4596.92,4435.9,4585.13,1691,1709,2.336,0,0,0,0,
85,4076.92,4215.9,4074.36,3968.72,4352.82,4175.38,4562.56,4538.46,4271.79,3920,4211.28,4606.15,4427.69,4622.56,1691,1711,2.344,0,0,0,0,
86,4056.92,4215.38,4059.49,4025.13,4357.44,4169.74,4553.85,4533.33,4267.18,3907.69,4196.92,4602.05,4411.79,4624.62,1691,1710,2.351,0,0,0,0,
87,4071.28,4175.9,4068.21,4052.31,4364.62,4165.13,4552.31,4536.41,4277.44,3913.85,4205.13,4614.87,4408.72,4620,1690,1712,2.359,0,0,0,0,
88,4077.95,4212.31,4080,3981.54,4372.82,4168.72,4558.46,4541.54,4281.54,3922.05,4219.49,4626.15,4433.85,4623.59,1692,1712,2.367,0,0,0,0,
89,4066.15,4225.13,4071.28,3956.41,4352.82,4168.72,4554.87,4540,4278.97,3911.79,4184.62,4616.41,4406.15,4628.72,1690,1713,2.374,0,0,0,0,
90,4072.31,4155.9,4072.31,3984.1,4320,4163.08,4550.77,4535.38,4276.92,3906.15,4165.13,4603.59,4378.97,4623.08,1691,1714,2.382,0,0,0,0,
91,4079.49,4178.97,4082.56,4004.1,4328.72,4168.72,4564.1,4538.97,4284.62,3921.54,4208.72,4602.05,4430.77,4605.13,1690,1711,2.391,0,0,0,0,
92,4058.46,4232.82,4066.67,3973.33,4340,4172.82,4567.18,4539.49,4284.62,3921.03,4223.08,4595.38,4449.23,4590.77,1689,1710,2.398,0,0,0,0,
93,4049.74,4172.31,4061.03,3938.97,4334.87,4168.21,4561.03,4537.95,4282.56,3912.31,4203.08,4591.28,4431.28,4604.62,1688,1707,2.406,0,0,0,0,
94,4074.87,4136.92,4077.95,3992.82,4338.97,4166.15,4564.62,4544.62,4295.38,3917.44,4201.03,4604.62,4417.44,4619.49,1688,1704,2.414,0,0,0,0,
95,4073.85,4215.38,4062.56,4036.92,4351.79,4169.23,4564.62,4545.64,4297.95,3910.26,4186.15,4614.36,4362.56,4606.15,1687,1701,2.422,0,0,0,0,
96,4055.38,4231.79,4045.64,3982.05,4355.38,4172.31,4555.9,4539.49,4283.08,3892.82,4167.69,4604.1,4361.54,4608.72,1687,1702,2.429,0,0,0,0,
97,4067.69,4154.87,4070.26,3956.92,4342.56,4171.79,4554.87,4534.87,4278.46,3894.36,4186.67,4593.85,4424.62,4628.21,1688,1702,2.437,0,0,0,0,
98,4082.56,4137.44,4083.08,3983.59,4332.31,4172.82,4559.49,4527.69,4277.44,3895.38,4201.54,4603.08,4398.46,4631.79,1690,1707,2.445,0,0,0,0,
99,4056.92,4187.69,4052.31,3971.28,4332.82,4170.77,4553.85,4517.95,4261.54,3875.38,4172.82,4594.36,4357.44,4587.69,1690,1708,2.453,0,0,0,0,
100,4037.44,4201.03,4035.38,3950.77,4341.03,4160,4543.08,4512.82,4251.79,3868.21,4158.97,4570.77,4410.77,4552.31,1691,1711,2.46,0,0,0,0,
101,4066.67,4196.41,4059.49,3956.41,4360,4160,4544.62,4523.59,4269.23,3884.62,4190.26,4591.79,4436.41,4607.18,1692,1711,2.468,0,0,0,0,
102,4103.59,4232.31,4077.44,3983.59,4372.82,4169.74,4555.38,4538.97,4287.69,3899.49,4207.69,4621.54,4423.08,4666.15,1692,1712,2.477,0,0,0,0,
103,4123.59,4228.72,4080.51,4013.85,4350.77,4160,4554.36,4533.33,4278.97,3896.41,4188.72,4604.1,4434.36,4671.79,1692,1711,2.484,0,0,0,0,
104,4154.87,4211.28,4095.38,4023.08,4330.26,4146.67,4548.21,4525.13,4269.74,3891.79,4185.13,4597.95,4433.33,4684.62,1692,1710,2.492,0,0,0,0,
105,4206.15,4269.74,4116.92,4023.08,4336.92,4155.38,4555.9,4536.41,4281.03,3891.79,4201.03,4639.49,4420.51,4743.59,1692,1707,2.5,0,0,0,0,
106,4231.79,4261.54,4123.59,3999.49,4327.18,4156.41,4555.9,4533.85,4283.59,3888.21,4198.97,4652.31,4431.28,4776.92,1691,1707,2.507,0,0,0,0,
107,4227.69,4198.97,4122.56,3983.59,4329.74,4152.31,4548.72,4521.54,4273.85,3890.26,4208.72,4633.85,4454.87,4763.59,1691,1706,2.515,0,0,0,0,
108,4224.62,4251.28,4126.15,4000,4345.13,4162.05,4551.28,4520,4269.23,3887.18,4213.85,4651.79,4429.23,4777.44,1690,1706,2.523,0,0,0,0,
109,4211.79,4284.62,4119.49,3976.41,4317.95,4162.05,4545.13,4510.77,4252.31,3873.33,4185.13,4652.82,4407.69,4759.49,1691,1706,2.531,0,0,0,0,
110,4190.26,4253.33,4097.95,3993.85,4329.74,4155.9,4533.85,4506.15,4245.13,3878.97,4193.85,4621.03,4447.18,4705.13,1691,1706,2.539,0,0,0,0,
111,4203.08,4260.51,4108.72,4058.97,4376.41,4157.44,4540,4523.59,4268.21,3895.38,4227.18,4637.95,4438.97,4720.51,1691,1708,2.546,0,0,0,0,
112,4211.28,4243.59,4139.49,3973.85,4344.62,4154.36,4552.82,4530.77,4282.05,3892.31,4217.44,4656.41,4406.15,4744.1,1692,1707,2.554,0,0,0,0,
113,4174.87,4207.18,4126.15,3894.87,4320,4158.97,4558.46,4534.36,4282.05,3894.36,4203.59,4629.74,4432.82,4711.79,1691,1708,2.562,0,0,0,0,
114,4144.62,4232.31,4079.49,3995.9,4360.51,4164.62,4553.33,4535.9,4279.49,3896.41,4191.79,4607.69,4443.59,4678.46,1690,1709,2.57,0,0,0,0,
115,4142.56,4230.26,4063.59,4058.97,4352.82,4166.15,4550.77,4525.64,4275.38,3882.05,4169.23,4616.92,4385.13,4687.18,1690,1710,2.578,0,0,0,0,
116,4135.38,4209.74,4083.08,3988.72,4327.18,4181.54,4567.18,4532.31,4287.69,3896.41,4194.36,4632.82,4387.18,4691.28,1690,1709,2.586,0,0,0,0,
117,4110.77,4220.51,4090.77,3920.51,4346.67,4183.08,4573.85,4546.15,4302.05,3920,4224.1,4618.46,4452.82,4649.74,1689,1709,2.593,0,0,0,0,
118,4098.46,4153.33,4089.74,3883.08,4322.56,4145.64,4550.26,4529.74,4281.03,3887.18,4178.97,4598.97,4378.97,4614.36,1691,1708,2.601,0,0,0,0,
119,4090.26,4113.33,4078.97,3937.95,4281.54,4133.85,4539.49,4518.97,4262.05,3851.28,4147.69,4608.72,4270.77,4616.41,1690,1707,2.609,0,0,0,0,
120,4062.56,4184.1,4047.18,4017.95,4322.56,4167.18,4554.36,4537.44,4279.49,3878.46,4175.9,4603.08,4342.56,4603.08,1691,1708,2.617,0,0,0,0,
121,4074.87,4193.33,4062.56,3936.92,4361.03,4175.38,4558.97,4547.18,4290.26,3900.51,4168.72,4584.1,4437.44,4586.15,1692,1707,2.625,0,0,0,0,
122,4107.69,4174.36,4102.56,3882.05,4356.92,4160,4557.95,4547.69,4285.64,3883.59,4142.56,4608.21,4395.9,4627.69,1691,1710,2.632,0,0,0,0,
123,4081.54,4212.82,4078.97,3984.1,4367.69,4171.79,4567.18,4556.41,4295.9,3889.23,4178.46,4629.23,4366.67,4636.41,1692,1709,2.64,0,0,0,0,
124,4040.51,4184.62,4037.44,3972.82,4335.9,4177.95,4565.64,4545.64,4293.33,3902.05,4199.49,4593.85,4389.74,4568.72,1691,1711,2.649,0,0,0,0,
125,4055.38,4121.54,4060,3862.56,4290.26,4152.31,4550.77,4523.08,4272.31,3877.95,4155.9,4577.95,4359.49,4560,1692,1710,2.656,0,0,0,0,
126,4069.74,4156.41,4076.92,3910.26,4330.26,4155.38,4551.28,4533.85,4282.05,3874.87,4152.82,4592.82,4368.72,4592.82,1691,1709,2.664,0,0,0,0,
127,4052.82,4199.49,4052.82,4012.31,4383.59,4185.13,4565.13,4559.49,4309.23,3912.31,4210.77,4596.92,4421.54,4579.49,1691,1708,2.672,0,0,0,0,
128,4051.28,4183.08,4047.69,3968.21,4357.44,4172.31,4564.1,4551.28,4300.51,3912.31,4211.79,4593.85,4395.9,4576.41,1689,1709,2.679,0,0,0,0,
0,4070.77,4156.41,4070.26,3875.38,4330.26,4150.77,4554.87,4534.87,4282.05,3882.56,4156.41,4607.18,4350.26,4636.41,1691,1709,2.687,0,0,0,0,
1,4072.31,4165.13,4076.92,3885.64,4334.36,4160,4554.87,4533.33,4278.97,3865.13,4145.13,4614.36,4349.74,4638.46,1688,1710,2.696,0,0,0,0,
2,4029.74,4192.82,4037.95,3957.44,4308.72,4160,4553.85,4515.38,4261.54,3850.26,4159.49,4572.82,4359.49,4537.95,1689,1711,2.703,0,0,0,0,
3,4031.79,4207.69,4025.13,3977.44,4310.77,4160,4551.28,4511.28,4259.49,3860.51,4165.64,4566.15,4367.69,4549.23,1688,1710,2.711,0,0,0,0,
4,4114.87,4175.9,4083.59,3938.97,4337.95,4167.69,4552.31,4534.87,4282.05,3884.1,4184.1,4618.97,4387.69,4669.23,1688,1711,2.719,0,0,0,0,
5,4165.13,4190.26,4111.79,3928.72,4337.44,4154.36,4549.74,4531.79,4277.95,3877.44,4193.33,4622.56,4411.79,4687.18,1689,1709,2.726,0,0,0,0,
6,4209.23,4292.31,4110.77,3986.15,4354.87,4145.64,4549.74,4521.03,4264.1,3870.77,4186.67,4621.54,4403.08,4726.67,1688,1708,2.734,0,0,0,0,
7,4312.31,4349.74,4148.72,4054.87,4392.31,4158.97,4555.38,4538.97,4284.1,3891.28,4205.64,4680.51,4413.33,4880.51,1689,1708,2.742,0,0,0,0,
8,4369.23,4321.03,4172.31,4018.97,4361.54,4149.23,4544.62,4535.9,4286.67,3884.62,4230.77,4690.26,4456.41,4931.79,1688,1708,2.75,0,0,0,0,
9,4340,4317.44,4151.28,3967.18,4314.87,4123.08,4528.72,4502.56,4247.69,3854.87,4206.67,4653.33,4442.56,4900,1689,1708,2.758,0,0,0,0,
10,4333.85,4354.87,4153.33,4014.36,4340,4133.33,4540.51,4504.1,4241.03,3861.54,4182.05,4681.54,4392.82,4945.13,1689,1707,2.765,0,0,0,0,
11,4329.23,4336.41,4159.49,4008.72,4351.28,4164.1,4555.38,4521.54,4260.51,3872.31,4193.33,4695.38,4391.79,4933.33,1690,1708,2.774,0,0,0,0,
12,4276.92,4325.13,4127.69,3968.21,4339.49,4169.23,4545.64,4520.51,4265.13,3865.13,4202.05,4649.23,4415.38,4814.87,1689,1708,2.781,0,0,0,0,
13,4250.77,4336.41,4114.87,4002.05,4343.08,4143.08,4535.9,4519.49,4259.49,3861.54,4188.72,4640.51,4392.31,4782.56,1691,1710,2.789,0,0,0,0,
14,4242.05,4268.21,4124.62,4016.41,4346.15,4123.59,4538.97,4524.62,4264.1,3865.64,4177.95,4650.26,4376.92,4797.95,1691,1708,2.797,0,0,0,0,
15,4196.92,4239.49,4106.67,3977.44,4341.03,4140,4544.1,4527.18,4274.87,3868.72,4177.95,4620.51,4390.77,4742.56,1690,1712,2.805,0,0,0,0,
16,4150.26,4301.03,4076.92,3974.87,4330.77,4156.92,4546.15,4525.13,4275.38,3870.26,4178.97,4598.97,4373.33,4701.54,1691,1710,2.812,0,0,0,0,
17,4141.54,4258.46,4074.36,3949.23,4321.54,4144.62,4541.03,4520,4266.15,3864.1,4176.41,4604.1,4336.92,4706.15,1690,1711,2.82,0,0,0,0,
18,4118.46,4151.28,4072.82,3892.31,4313.33,4137.95,4537.44,4513.33,4255.9,3845.64,4138.46,4594.36,4298.97,4667.69,1692,1710,2.828,0,0,0,0,
19,4091.28,4183.59,4061.03,3922.56,4326.15,4152.82,4550.26,4527.18,4272.31,3858.46,4121.54,4592.31,4311.28,4632.31,1691,1708,2.836,0,0,0,0,
20,4098.97,4252.31,4060,3986.67,4358.97,4158.97,4557.44,4542.56,4291.79,3885.64,4168.21,4602.05,4364.62,4654.36,1692,1708,2.844,0,0,0,0,
21,4092.31,4235.38,4049.74,3986.67,4383.59,4155.38,4551.28,4532.82,4280,3877.44,4188.72,4593.85,4345.13,4663.08,1691,1707,2.852,0,0,0,0,
22,4062.56,4183.08,4042.56,3903.59,4342.05,4145.64,4545.13,4515.9,4258.97,3856.41,4161.54,4582.05,4290.26,4629.74,1693,1708,2.859,0,0,0,0,
23,4060.51,4168.21,4058.97,3851.79,4310.26,4134.87,4542.05,4520,4265.64,3865.13,4169.74,4585.13,4329.23,4615.38,1693,1708,2.867,0,0,0,0,
24,4066.67,4186.15,4061.03,3910.77,4353.33,4148.72,4546.67,4531.28,4280.51,3881.03,4189.74,4581.03,4387.18,4621.54,1692,1710,2.875,0,0,0,0,
25,4048.21,4191.28,4036.92,3978.97,4385.13,4172.82,4555.9,4536.41,4277.95,3879.49,4155.9,4569.23,4353.33,4604.62,1690,1712,2.883,0,0,0,0,
26,4044.1,4203.59,4027.69,4010.77,4376.41,4173.85,4556.92,4547.18,4286.15,3884.1,4150.26,4581.54,4315.38,4607.18,1691,1713,2.891,0,0,0,0,
27,4051.79,4209.74,4041.54,3935.9,4350.26,4164.1,4557.44,4550.77,4294.87,3878.46,4174.87,4602.05,4302.56,4645.13,1689,1713,2.898,0,0,0,0,
28,4037.95,4154.87,4047.18,3828.21,4320.51,4158.97,4561.03,4538.97,4280,3862.05,4151.79,4581.54,4301.03,4620,1690,1711,2.906,0,0,0,0,
29,4024.1,4091.79,4040,3878.46,4312.82,4147.69,4554.87,4529.74,4269.23,3862.56,4121.03,4544.1,4318.97,4554.87,1689,1708,2.914,0,0,0,0,
30,4024.62,4150.77,4032.82,3979.49,4365.64,4152.82,4553.85,4542.05,4289.74,3878.97,4144.1,4560.51,4318.97,4583.59,1690,1706,2.922,0,0,0,0,
31,4026.67,4216.92,4035.38,3944.1,4397.44,4167.69,4562.05,4553.33,4302.56,3886.67,4174.87,4594.36,4297.44,4625.13,1689,1705,2.93,0,0,0,0,
32,3997.95,4141.03,4017.95,3862.05,4320,4157.44,4550.26,4528.21,4273.33,3863.59,4130.77,4554.36,4280.51,4540.51,1691,1706,2.938,0,0,0,0,
33,3965.64,4086.15,3994.36,3845.64,4281.54,4150.26,4537.44,4508.72,4254.87,3843.59,4092.31,4509.23,4277.44,4482.05,1691,1704,2.945,0,0,0,0,
34,3977.95,4156.92,3997.44,3899.49,4375.9,4165.13,4546.67,4530.26,4281.54,3868.21,4137.95,4537.95,4298.46,4540.51,1690,1707,2.953,0,0,0,0,
35,4014.36,4198.46,4013.85,3988.21,4432.82,4174.36,4558.97,4552.31,4308.72,3904.62,4182.05,4573.85,4335.9,4599.49,1692,1707,2.961,0,0,0,0,
36,4030.26,4146.15,4029.23,3960.51,4367.18,4165.64,4557.44,4541.54,4298.46,3904.62,4174.36,4574.36,4349.74,4607.18,1691,1709,2.969,0,0,0,0,
37,4019.49,4149.74,4033.33,3883.08,4342.05,4156.41,4549.74,4534.87,4283.59,3889.23,4164.1,4576.41,4329.23,4594.36,1692,1709,2.977,0,0,0,0,
38,4007.18,4187.69,4022.56,3923.59,4381.54,4151.28,4546.15,4543.08,4287.18,3893.85,4171.28,4580,4320.51,4575.38,1691,1709,2.986,0,0,0,0,
39,4000.51,4160.51,4016.41,3930.26,4366.15,4142.56,4541.54,4537.44,4285.13,3897.44,4166.67,4564.62,4340,4562.56,1691,1711,2.992,0,0,0,0,
40,3993.85,4158.97,4013.85,3902.56,4345.64,4142.05,4542.05,4532.82,4279.49,3889.74,4170.26,4552.82,4361.54,4556.41,1691,1711,3,0,0,0,0,
41,3987.69,4176.92,4009.23,3936.41,4368.72,4153.33,4552.31,4541.03,4286.15,3884.1,4174.87,4557.95,4351.79,4551.28,1692,1709,3.008,0,0,0,0,
42,3982.05,4166.15,4010.26,3929.23,4376.92,4158.46,4552.82,4536.41,4281.54,3882.05,4156.41,4556.92,4325.64,4552.31,1691,1707,3.016,0,0,0,0,
43,3991.28,4160,4020.51,3891.28,4352.31,4151.79,4539.49,4522.56,4267.69,3878.97,4144.62,4558.97,4304.62,4567.69,1691,1709,3.024,0,0,0,0,
44,4022.05,4115.38,4037.95,3917.44,4327.69,4149.23,4542.05,4522.56,4268.72,3873.33,4146.15,4583.59,4287.69,4602.56,1692,1709,3.031,0,0,0,0,
45,4033.85,4085.64,4052.31,3941.54,4340,4154.36,4556.92,4528.72,4274.36,3878.46,4148.72,4593.85,4303.59,4599.49,1690,1713,3.039,0,0,0,0,
46,3995.38,4171.28,4025.64,3937.44,4387.18,4153.85,4546.15,4529.23,4272.82,3892.82,4155.38,4560,4354.36,4542.56,1691,1714,3.047,0,0,0,0,
47,3975.38,4241.54,3998.97,3945.13,4413.85,4151.28,4534.36,4535.9,4280,3902.05,4169.74,4543.59,4376.41,4536.92,1689,1715,3.055,0,0,0,0,
48,4003.59,4166.15,4023.59,3910.77,4373.85,4150.77,4549.74,4541.03,4285.13,3896.92,4168.72,4565.13,4355.38,4575.9,1691,1715,3.063,0,0,0,0,
49,4011.28,4126.15,4038.46,3909.23,4342.56,4150.26,4557.95,4535.9,4276.92,3889.23,4157.44,4570.77,4351.28,4574.36,1691,1713,3.07,0,0,0,0,
50,4000.51,4176.41,4020.51,3972.31,4375.9,4155.38,4553.33,4538.97,4282.56,3898.97,4167.69,4569.23,4364.62,4564.62,1691,1711,3.078,0,0,0,0,
51,4008.72,4165.13,4018.46,3960,4394.36,4156.41,4554.87,4545.64,4290.77,3907.69,4174.36,4569.74,4353.33,4566.15,1691,1709,3.086,0,0,0,0,
52,4011.28,4136.92,4024.1,3910.26,4374.87,4152.31,4552.82,4538.46,4280.51,3895.9,4158.46,4556.41,4343.59,4551.79,1691,1710,3.094,0,0,0,0,
53,4002.56,4158.46,4018.46,3933.85,4369.23,4150.77,4541.03,4525.64,4269.23,3879.49,4149.74,4550.26,4353.85,4555.9,1692,1710,3.102,0,0,0,0,
54,4008.21,4180,4024.62,3955.38,4386.15,4152.31,4540.51,4523.59,4272.82,3881.03,4158.46,4561.03,4360.51,4571.79,1692,1712,3.11,0,0,0,0,
55,4021.03,4171.28,4038.97,3932.82,4396.92,4155.9,4554.87,4531.79,4278.97,3897.44,4166.15,4565.64,4367.18,4566.67,1692,1712,3.117,0,0,0,0,
56,4021.54,4148.72,4037.44,3943.59,4385.13,4149.23,4552.31,4531.79,4270.26,3895.9,4157.44,4569.74,4352.31,4576.92,1691,1714,3.126,0,0,0,0,
57,4017.44,4133.33,4029.23,3956.41,4355.38,4141.54,4540,4520.51,4258.46,3870.77,4144.62,4572.31,4323.08,4587.18,1693,1712,3.133,0,0,0,0,
58,4017.95,4118.97,4038.46,3896.92,4337.44,4145.64,4546.15,4523.08,4262.05,3864.1,4152.82,4562.56,4342.05,4570.26,1691,1710,3.141,0,0,0,0,
59,4025.64,4114.36,4050.77,3877.44,4356.41,4153.85,4556.41,4535.38,4272.31,3884.62,4169.23,4556.92,4387.18,4562.56,1692,1709,3.149,0,0,0,0,
60,4029.74,4143.08,4040.51,3952.31,4392.82,4157.44,4553.85,4539.49,4286.67,3899.49,4172.31,4567.18,4387.69,4579.49,1691,1706,3.157,0,0,0,0,
61,4034.87,4161.54,4037.44,3963.59,4401.54,4157.44,4552.82,4547.69,4305.64,3904.62,4168.72,4584.1,4363.08,4587.18,1691,1704,3.164,0,0,0,0,
62,4046.15,4118.46,4059.49,3896.92,4379.49,4153.33,4555.9,4554.36,4310.26,3909.74,4167.69,4589.23,4363.08,4587.69,1692,1701,3.172,0,0,0,0,
63,4038.97,4106.15,4057.44,3907.18,4380.51,4158.46,4558.46,4547.69,4300,3911.79,4169.74,4576.92,4389.74,4586.15,1691,1703,3.181,0,0,0,0,
64,4015.9,4155.9,4027.18,3953.85,4403.59,4171.28,4557.44,4536.92,4286.67,3905.13,4173.85,4562.56,4409.74,4569.23,1691,1705,3.188,0,0,0,0,
65,4027.18,4130.26,4033.33,3934.87,4390.26,4161.03,4547.18,4525.64,4267.69,3889.74,4168.72,4565.64,4390.26,4568.21,1691,1708,3.196,0,0,0,0,
66,4052.31,4077.95,4057.95,3907.69,4359.49,4138.46,4538.46,4516.41,4256.92,3878.97,4151.79,4575.9,4369.23,4592.31,1691,1708,3.203,0,0,0,0,
67,4039.49,4113.85,4053.33,3910.77,4370.26,4137.44,4540.51,4519.49,4264.1,3878.97,4150.77,4568.72,4385.64,4591.28,1690,1710,3.211,0,0,0,0,
68,4031.79,4141.54,4048.21,3929.23,4394.36,4143.59,4541.54,4525.13,4266.15,3880,4163.08,4568.72,4390.77,4582.05,1691,1710,3.219,0,0,0,0,
69,4056.41,4097.95,4059.49,3937.95,4386.67,4147.18,4544.1,4524.1,4265.64,3887.69,4169.23,4583.08,4382.05,4603.59,1689,1712,3.227,0,0,0,0,
70,4068.72,4083.08,4064.1,3912.82,4366.67,4148.72,4547.18,4524.1,4277.44,3897.95,4172.31,4591.28,4386.15,4615.38,1690,1713,3.235,0,0,0,0,
71,4056.92,4108.72,4060.51,3891.28,4366.15,4141.03,4540.51,4523.08,4282.56,3896.92,4176.41,4586.67,4390.26,4596.41,1690,1712,3.243,0,0,0,0,
72,4061.03,4096.92,4073.85,3886.67,4383.08,4143.08,4540,4531.28,4284.62,3903.08,4184.1,4594.87,4402.05,4611.28,1689,1713,3.253,0,0,0,0,
73,4071.79,4069.23,4081.54,3888.72,4376.41,4149.74,4547.69,4538.97,4287.18,3904.62,4174.36,4607.18,4403.08,4641.03,1690,1709,3.258,0,0,0,0,
74,4058.97,4067.69,4058.46,3907.69,4360.51,4144.62,4542.56,4527.69,4280.51,3889.23,4155.9,4584.62,4389.23,4605.64,1690,1706,3.267,0,0,0,0,
75,4048.21,4080.51,4046.67,3922.56,4367.69,4144.1,4536.41,4523.08,4275.38,3887.69,4162.05,4566.67,4394.87,4571.28,1692,1705,3.274,0,0,0,0,
76,4053.33,4101.54,4060,3911.79,4387.69,4157.95,4548.72,4534.87,4278.97,3906.15,4181.54,4586.15,4398.97,4597.44,1691,1705,3.285,0,0,0,0,
77,4055.9,4109.74,4063.08,3911.79,4402.05,4163.08,4555.38,4537.44,4280.51,3913.85,4187.18,4595.38,4393.85,4608.72,1693,1705,3.29,0,0,0,0,
78,4057.44,4106.15,4058.46,3914.36,4402.05,4149.74,4545.64,4533.33,4281.03,3911.28,4181.54,4582.56,4401.54,4596.41,1692,1707,3.297,0,0,0,0,
79,4059.49,4107.69,4061.54,3901.03,4385.13,4140.51,4537.95,4535.9,4280,3910.77,4176.92,4584.1,4392.31,4605.13,1693,1712,3.305,0,0,0,0,
80,4060,4100,4063.59,3909.74,4375.38,4144.1,4541.03,4536.92,4278.46,3909.74,4177.95,4592.82,4373.33,4618.46,1692,1714,3.313,0,0,0,0,
81,4073.33,4077.95,4071.79,3914.87,4383.59,4153.33,4549.74,4538.46,4291.28,3913.85,4184.1,4598.46,4383.59,4622.56,1693,1714,3.322,0,0,0,0,
82,4072.31,4082.56,4076.92,3892.82,4374.87,4151.79,4553.85,4541.03,4295.9,3916.41,4176.41,4598.97,4394.36,4614.87,1693,1714,3.329,0,0,0,0,
83,4049.74,4103.59,4062.56,3893.85,4365.13,4150.26,4552.82,4536.92,4277.95,3910.26,4169.23,4586.67,4394.36,4603.59,1692,1713,3.336,0,0,0,0,
84,4055.38,4103.59,4062.56,3900.51,4379.49,4157.44,4552.82,4535.9,4277.95,3911.79,4185.64,4584.62,4410.77,4609.74,1692,1713,3.344,0,0,0,0,
85,4069.23,4080,4072.82,3869.74,4373.85,4156.41,4554.87,4541.03,4297.44,3921.03,4188.72,4591.79,4410.26,4614.87,1693,1711,3.352,0,0,0,0,
86,4050.26,4069.23,4061.03,3860,4365.13,4151.28,4553.33,4541.54,4291.79,3915.38,4163.08,4584.62,4385.13,4597.44,1692,1712,3.36,0,0,0,0,
87,4051.79,4082.05,4059.49,3898.97,4395.9,4154.87,4552.31,4538.97,4274.87,3907.18,4165.64,4585.64,4391.79,4598.97,1693,1710,3.368,0,0,0,0,
88,4088.21,4076.41,4081.03,3904.1,4402.56,4161.03,4556.41,4539.49,4277.95,3919.49,4196.92,4602.56,4427.18,4626.67,1691,1709,3.376,0,0,0,0,
89,4087.69,4064.1,4084.62,3857.44,4370.26,4157.95,4554.36,4536.92,4283.08,3930.26,4198.97,4605.13,4428.21,4634.36,1692,1709,3.383,0,0,0,0,
90,4062.05,4087.69,4071.28,3857.95,4379.49,4151.79,4548.72,4535.9,4278.97,3926.15,4177.44,4598.46,4403.08,4619.49,1691,1708,3.391,0,0,0,0,
91,4066.67,4104.1,4068.21,3887.69,4404.1,4152.31,4547.69,4538.46,4278.97,3925.13,4177.44,4599.49,4407.18,4612.82,1690,1710,3.399,0,0,0,0,
92,4086.67,4072.31,4084.1,3862.56,4388.21,4153.85,4551.79,4541.03,4285.13,3929.23,4190.77,4603.59,4426.15,4623.59,1690,1710,3.407,0,0,0,0,
93,4079.49,4061.54,4089.74,3842.05,4373.33,4152.31,4553.33,4543.59,4287.18,3930.77,4188.72,4604.1,4421.03,4623.59,1688,1711,3.415,0,0,0,0,
94,4062.05,4075.38,4071.28,3870.77,4371.79,4150.77,4550.77,4538.46,4281.54,3926.67,4183.08,4598.97,4412.31,4609.74,1689,1710,3.422,0,0,0,0,
95,4073.33,4061.03,4069.74,3876.92,4368.72,4152.31,4551.79,4536.92,4282.05,3924.1,4187.18,4600,4420.51,4623.59,1688,1711,3.43,0,0,0,0,
96,4085.64,4052.82,4089.23,3842.56,4375.38,4153.33,4557.44,4547.69,4292.82,3932.82,4191.28,4607.69,4424.1,4636.92,1689,1708,3.438,0,0,0,0,
97,4074.36,4059.49,4084.62,3843.59,4383.59,4157.95,4558.97,4547.18,4296.41,3937.95,4190.26,4604.1,4416.92,4622.05,1688,1708,3.446,0,0,0,0,
98,4066.15,4065.64,4070.77,3847.18,4385.13,4160.51,4555.38,4538.97,4293.85,3932.82,4185.64,4588.72,4415.38,4612.82,1690,1707,3.454,0,0,0,0,
99,4069.74,4071.28,4077.44,3814.87,4385.64,4155.9,4553.33,4537.44,4287.69,3925.13,4176.41,4583.59,4407.69,4611.79,1690,1707,3.463,0,0,0,0,
100,4060,4080.51,4073.33,3817.95,4383.08,4152.82,4551.79,4530.77,4271.79,3914.87,4164.1,4586.67,4391.79,4601.03,1692,1709,3.469,0,0,0,0,
101,4057.44,4084.62,4061.03,3853.33,4388.72,4155.9,4550.26,4526.67,4267.69,3908.21,4164.1,4584.1,4400.51,4600.51,1693,1709,3.477,0,0,0,0,
102,4077.44,4090.77,4070.77,3862.56,4394.87,4155.9,4551.28,4537.44,4281.03,3916.92,4174.87,4584.1,4428.21,4612.31,1693,1710,3.485,0,0,0,0,
103,4073.33,4095.9,4074.87,3838.46,4383.59,4151.28,4553.33,4541.03,4284.62,3926.67,4176.92,4585.64,4427.69,4603.59,1694,1710,3.493,0,0,0,0,
104,4059.49,4088.21,4067.18,3825.13,4375.9,4149.23,4553.33,4535.9,4276.92,3927.69,4171.28,4585.64,4416.41,4596.41,1693,1711,3.501,0,0,0,0,
105,4075.9,4090.77,4075.38,3841.54,4379.49,4149.74,4553.33,4541.54,4282.56,3928.72,4174.36,4594.36,4431.28,4617.44,1693,1711,3.509,0,0,0,0,
106,4086.67,4093.85,4087.18,3831.28,4376.41,4151.79,4554.36,4544.1,4293.85,3930.26,4186.15,4601.03,4446.15,4627.18,1693,1712,3.516,0,0,0,0,
107,4071.79,4091.79,4082.05,3800,4370.77,4153.33,4553.85,4539.49,4287.69,3929.23,4186.67,4592.31,4438.46,4616.92,1692,1710,3.524,0,0,0,0,
108,4066.15,4104.1,4073.33,3809.74,4371.79,4149.23,4553.33,4536.41,4273.33,3926.15,4172.31,4584.62,4426.67,4616.92,1691,1711,3.532,0,0,0,0,
109,4074.36,4111.28,4075.38,3839.49,4377.44,4152.31,4553.85,4536.41,4273.85,3923.08,4171.79,4589.74,4427.69,4621.54,1691,1710,3.54,0,0,0,0,
110,4075.9,4103.59,4077.95,3826.67,4378.46,4163.59,4555.9,4542.05,4287.18,3929.74,4184.1,4598.46,4430.26,4617.44,1690,1710,3.549,0,0,0,0,
111,4073.85,4110.77,4077.44,3807.69,4382.05,4162.05,4556.41,4545.13,4288.21,3939.49,4189.23,4602.05,4438.97,4626.15,1690,1712,3.555,0,0,0,0,
112,4075.9,4110.26,4078.46,3813.33,4382.56,4150.26,4553.33,4542.56,4286.67,3940.51,4184.1,4599.49,4441.54,4632.31,1690,1711,3.564,0,0,0,0,
113,4075.9,4080.51,4082.56,3791.28,4364.62,4148.21,4553.33,4542.05,4294.36,3939.49,4171.28,4592.82,4419.49,4615.38,1689,1713,3.571,0,0,0,0,
114,4070.77,4088.21,4082.56,3766.15,4360,4154.87,4557.95,4548.72,4292.31,3941.03,4171.28,4590.26,4414.87,4610.26,1691,1713,3.579,0,0,0,0,
115,4063.59,4131.79,4077.44,3793.33,4381.54,4157.44,4559.49,4551.79,4281.54,3932.82,4180.51,4589.74,4427.69,4620.51,1690,1713,3.587,0,0,0,0,
116,4068.21,4131.28,4077.44,3823.08,4381.54,4153.85,4556.92,4545.64,4280,3921.54,4176.92,4588.72,4420,4618.46,1692,1714,3.594,0,0,0,0,
117,4075.9,4110.77,4078.97,3812.82,4365.13,4149.74,4554.36,4540,4280.51,3923.59,4166.15,4587.69,4408.21,4613.33,1690,1713,3.602,0,0,0,0,
118,4063.59,4124.1,4074.87,3793.33,4365.13,4150.26,4553.85,4536.92,4274.87,3925.64,4165.64,4587.69,4403.59,4614.87,1692,1711,3.61,0,0,0,0,
119,4049.23,4130.26,4069.23,3787.18,4367.18,4151.79,4553.85,4542.56,4284.1,3923.08,4167.69,4584.1,4404.62,4606.15,1691,1709,3.618,0,0,0,0,
120,4060.51,4107.69,4073.85,3788.21,4360.51,4155.38,4556.41,4553.33,4298.97,3934.87,4168.21,4578.97,4419.49,4596.92,1692,1709,3.626,0,0,0,0,
121,4076.41,4097.44,4084.1,3782.56,4361.03,4159.49,4556.41,4549.74,4293.33,3942.56,4173.85,4590.77,4425.13,4610.26,1691,1707,3.634,0,0,0,0,
122,4069.74,4107.69,4084.62,3763.08,4360,4149.23,4552.82,4536.92,4280,3928.72,4176.41,4602.05,4410.77,4628.72,1691,1706,3.641,0,0,0,0,
123,4060.51,4125.64,4078.46,3763.59,4351.28,4142.05,4551.28,4535.9,4280,3926.67,4172.31,4592.31,4412.31,4625.13,1692,1705,3.649,0,0,0,0,
124,4070.26,4135.9,4081.54,3797.44,4357.44,4150.26,4554.36,4543.08,4282.56,3939.49,4169.23,4588.21,4422.05,4616.41,1690,1707,3.657,0,0,0,0,
125,4081.03,4127.69,4087.18,3811.28,4369.74,4152.82,4556.41,4542.56,4277.44,3936.92,4179.49,4598.46,4424.62,4627.69,1692,1708,3.666,0,0,0,0,
126,4074.36,4120,4080,3797.44,4368.21,4142.56,4553.85,4537.95,4274.36,3927.18,4186.67,4595.9,4425.13,4636.92,1690,1710,3.673,0,0,0,0,
127,4062.56,4126.15,4073.33,3784.1,4353.33,4140,4551.79,4535.9,4276.92,3926.67,4175.38,4582.56,4423.59,4621.54,1691,1710,3.681,0,0,0,0,
128,4068.72,4125.13,4079.49,3786.15,4355.38,4146.67,4550.77,4541.03,4280,3928.72,4169.74,4585.64,4416.92,4615.9,1691,1708,3.688,0,0,0,0,
0,4078.46,4113.33,4082.56,3787.18,4363.08,4145.64,4543.59,4537.95,4274.87,3929.23,4172.82,4593.85,4400,4623.08,1691,1710,3.696,0,0,0,0,
1,4064.1,4121.54,4073.85,3760.51,4348.72,4138.46,4536.41,4524.62,4263.08,3924.1,4164.1,4583.08,4389.74,4611.28,1692,1711,3.705,0,0,0,0,
2,4054.36,4132.82,4069.74,3751.79,4348.72,4138.97,4542.05,4528.72,4268.21,3918.97,4162.05,4571.79,4406.15,4605.13,1692,1712,3.712,0,0,0,0,
3,4071.79,4123.08,4075.9,3795.38,4367.69,4142.56,4551.79,4542.05,4281.54,3929.23,4175.9,4580.51,4422.05,4619.49,1692,1711,3.72,0,0,0,0,
4,4078.46,4124.1,4078.97,3808.21,4362.56,4137.95,4551.28,4541.54,4283.59,3945.13,4178.97,4591.28,4412.82,4624.62,1692,1712,3.727,0,0,0,0,
5,4066.67,4135.38,4076.41,3771.28,4348.21,4142.05,4552.31,4538.97,4283.08,3941.54,4172.31,4586.15,4409.23,4616.41,1690,1709,3.736,0,0,0,0,
6,4062.56,4139.49,4072.82,3775.38,4356.92,4150.26,4552.31,4539.49,4283.08,3928.72,4170.26,4581.54,4414.36,4615.9,1690,1708,3.743,0,0,0,0,
7,4071.28,4140,4074.36,3800,4358.46,4147.69,4543.59,4536.41,4278.97,3925.64,4173.85,4587.18,4411.28,4624.1,1689,1708,3.751,0,0,0,0,
8,4082.05,4126.15,4090.26,3765.64,4342.05,4144.1,4538.46,4532.82,4278.97,3930.26,4183.59,4597.44,4412.31,4633.85,1689,1710,3.759,0,0,0,0,
9,4078.46,4107.69,4094.87,3742.05,4340.51,4140.51,4539.49,4527.18,4271.79,3929.74,4184.1,4602.05,4408.72,4636.92,1688,1710,3.767,0,0,0,0,
10,4066.15,4114.87,4075.38,3781.03,4345.13,4136.41,4536.92,4521.03,4262.56,3925.64,4172.31,4592.82,4396.41,4626.67,1689,1710,3.774,0,0,0,0,
11,4066.67,4128.72,4066.67,3803.59,4342.56,4142.56,4536.41,4523.59,4270.77,3928.21,4169.74,4584.1,4395.9,4616.92,1689,1709,3.782,0,0,0,0,
12,4072.31,4127.69,4075.9,3768.21,4341.03,4144.62,4541.03,4527.18,4275.38,3925.64,4173.85,4585.13,4393.33,4614.36,1690,1709,3.791,0,0,0,0,
13,4065.64,4132.82,4075.38,3752.31,4341.54,4136.41,4540.51,4530.26,4266.67,3913.33,4170.26,4585.13,4376.41,4614.87,1692,1707,3.798,0,0,0,0,
14,4060,4127.18,4069.74,3773.33,4344.1,4142.05,4538.46,4535.38,4269.23,3910.26,4166.67,4583.59,4373.33,4615.38,1691,1709,3.806,0,0,0,0,
15,4065.64,4102.56,4074.36,3761.03,4353.33,4153.85,4542.05,4536.41,4278.97,3912.82,4167.18,4583.59,4377.44,4613.85,1693,1708,3.814,0,0,0,0,
16,4074.87,4098.97,4079.49,3748.72,4360.51,4153.85,4550.77,4537.44,4280,3912.31,4166.15,4585.13,4368.21,4616.92,1693,1709,3.821,0,0,0,0,
17,4074.36,4126.67,4076.92,3783.08,4353.33,4150.77,4553.33,4541.03,4281.54,3916.92,4165.64,4583.08,4373.33,4617.44,1693,1709,3.829,0,0,0,0,
18,4068.21,4152.31,4074.36,3803.59,4344.62,4150.77,4545.13,4539.49,4282.05,3926.15,4167.69,4583.59,4383.08,4613.33,1693,1708,3.837,0,0,0,0,
19,4071.79,4150.26,4076.92,3781.54,4343.08,4150.26,4540.51,4539.49,4284.1,3925.64,4173.33,4594.36,4373.85,4617.95,1693,1708,3.845,0,0,0,0,
20,4078.97,4126.15,4082.56,3765.13,4341.54,4148.21,4542.05,4543.08,4285.13,3924.62,4184.62,4598.46,4378.97,4627.18,1692,1708,3.853,0,0,0,0,
21,4076.41,4114.87,4079.49,3768.21,4337.95,4150.77,4541.54,4536.41,4271.79,3929.23,4185.64,4585.64,4397.44,4623.59,1692,1710,3.86,0,0,0,0,
22,4072.82,4128.72,4072.31,3779.49,4341.03,4152.82,4538.97,4528.21,4265.64,3925.64,4173.85,4583.08,4382.05,4620.51,1691,1709,3.868,0,0,0,0,
23,4074.36,4122.05,4075.38,3775.38,4342.56,4150.26,4538.46,4532.82,4275.38,3920.51,4167.18,4590.77,4369.74,4626.15,1691,1711,3.876,0,0,0,0,
24,4078.46,4098.97,4084.62,3744.1,4334.87,4148.72,4540.51,4538.97,4278.46,3924.1,4172.31,4591.79,4381.03,4629.23,1692,1710,3.884,0,0,0,0,
25,4083.59,4105.13,4084.1,3754.36,4337.44,4152.82,4543.08,4541.03,4279.49,3928.72,4182.05,4595.38,4376.41,4629.74,1690,1711,3.892,0,0,0,0,
26,4078.46,4125.64,4073.33,3795.38,4342.56,4153.33,4540.51,4535.9,4278.97,3919.49,4182.05,4593.33,4365.64,4624.1,1692,1710,3.9,0,0,0,0,
27,4064.1,4133.33,4065.13,3780.51,4336.41,4148.72,4535.9,4527.18,4264.1,3904.62,4169.23,4580.51,4367.69,4612.82,1691,1711,3.907,0,0,0,0,
28,4067.69,4129.74,4070.26,3755.9,4340,4152.82,4544.62,4532.31,4265.64,3912.31,4171.79,4580.51,4380,4614.87,1691,1711,3.916,0,0,0,0,
29,4079.49,4120,4077.44,3777.44,4346.15,4155.9,4555.38,4545.13,4291.28,3930.26,4187.18,4587.18,4394.87,4617.44,1691,1709,3.923,0,0,0,0,
30,4072.82,4101.03,4073.33,3772.82,4328.72,4147.69,4551.79,4541.54,4292.31,3922.05,4174.36,4584.1,4373.33,4604.1,1690,1708,3.931,0,0,0,0,
31,4065.64,4085.13,4072.82,3736.92,4315.38,4145.13,4547.18,4531.79,4273.85,3903.59,4149.23,4580,4337.95,4603.59,1691,1707,3.939,0,0,0,0,
32,4075.9,4100,4084.1,3751.28,4336.92,4153.33,4552.82,4539.49,4277.95,3915.38,4163.59,4586.67,4363.08,4625.64,1690,1707,3.946,0,0,0,0,
33,4080,4127.69,4084.62,3790.26,4355.9,4154.87,4555.9,4545.64,4289.74,3935.38,4194.36,4598.46,4402.56,4637.95,1689,1707,3.954,0,0,0,0,
34,4074.36,4130.77,4074.36,3795.38,4348.72,4150.77,4551.28,4538.97,4289.23,3928.21,4193.85,4601.03,4391.79,4624.62,1689,1709,3.963,0,0,0,0,
35,4082.56,4124.62,4079.49,3779.49,4343.08,4153.85,4552.31,4544.62,4289.23,3925.13,4184.1,4598.97,4379.49,4615.38,1690,1709,3.971,0,0,0,0,
36,4090.77,4131.79,4091.79,3779.49,4340,4154.87,4555.9,4551.79,4292.31,3940.51,4189.74,4602.56,4388.72,4624.62,1689,1711,3.978,0,0,0,0,
37,4089.74,4130.77,4092.31,3798.97,4342.56,4158.97,4555.9,4545.13,4293.33,3939.49,4194.87,4606.67,4390.77,4634.87,1691,1711,3.986,0,0,0,0,
38,4092.82,4120.51,4093.85,3790.26,4349.74,4167.18,4556.92,4542.56,4294.36,3927.69,4192.82,4605.64,4390.26,4637.95,1691,1710,3.993,0,0,0,0,
39,4092.31,4114.36,4097.95,3754.87,4340.51,4158.97,4557.44,4550.26,4294.36,3933.85,4195.9,4603.59,4390.77,4635.9,1691,1711,4.001,0,0,0,0,
40,4082.05,4097.95,4093.33,3757.95,4328.72,4149.23,4555.38,4552.82,4295.38,3944.1,4198.46,4604.1,4388.72,4630.77,1692,1710,4.009,0,0,0,0,
41,4076.92,4103.08,4085.64,3795.38,4336.92,4153.85,4558.97,4553.85,4305.64,3943.59,4199.49,4604.1,4396.92,4626.67,1692,1710,4.017,0,0,0,0,
42,4085.13,4128.72,4088.72,3799.49,4343.59,4158.97,4565.13,4556.92,4310.77,3944.62,4203.59,4610.26,4400.51,4636.41,1692,1709,4.026,0,0,0,0,
43,4093.33,4113.85,4098.46,3775.38,4332.31,4155.9,4562.05,4554.87,4300.51,3943.59,4200.51,4614.87,4388.72,4638.97,1692,1709,4.033,0,0,0,0,
44,4090.26,4094.87,4095.9,3777.44,4330.77,4155.38,4556.92,4553.33,4291.79,3932.31,4186.15,4608.72,4373.33,4631.28,1691,1708,4.04,0,0,0,0,
45,4085.13,4122.05,4087.18,3790.77,4340,4155.38,4556.41,4548.72,4287.69,3927.69,4181.03,4606.67,4364.1,4637.44,1690,1709,4.048,0,0,0,0,
46,4080,4127.69,4082.56,3774.87,4331.79,4154.36,4554.36,4537.95,4277.95,3925.13,4184.1,4601.03,4366.67,4627.69,1690,1708,4.056,0,0,0,0,
47,4070.77,4102.56,4078.46,3762.56,4328.72,4152.82,4551.28,4535.38,4272.31,3913.85,4183.08,4583.59,4383.08,4602.05,1688,1709,4.064,0,0,0,0,
48,4070.77,4116.41,4075.9,3786.15,4345.13,4153.33,4553.33,4538.97,4276.92,3911.28,4180.51,4585.64,4386.15,4606.67,1689,1709,4.072,0,0,0,0,
49,4084.1,4126.67,4078.97,3803.59,4347.18,4156.41,4553.33,4538.46,4279.49,3919.49,4182.56,4602.56,4365.64,4627.18,1688,1709,4.079,0,0,0,0,
50,4088.21,4097.44,4082.05,3783.08,4327.69,4154.36,4551.28,4534.87,4277.44,3920.51,4184.62,4594.36,4370.26,4616.92,1689,1710,4.087,0,0,0,0,
51,4081.03,4104.1,4084.1,3775.9,4328.21,4149.74,4551.79,4535.38,4277.95,3921.03,4186.15,4587.69,4391.79,4614.36,1690,1709,4.096,0,0,0,0,
52,4083.08,4137.44,4091.79,3793.33,4340.51,4158.97,4553.85,4538.46,4283.08,3928.72,4189.23,4607.18,4381.03,4639.49,1690,1711,4.103,0,0,0,0,
53,4089.74,4125.64,4094.36,3780.51,4334.36,4167.18,4553.85,4537.44,4288.72,3929.23,4185.64,4607.69,4364.1,4629.74,1692,1710,4.111,0,0,0,0,
54,4088.72,4101.03,4089.23,3763.08,4334.87,4158.97,4552.31,4538.46,4286.67,3925.13,4188.21,4594.87,4378.97,4613.33,1692,1709,4.119,0,0,0,0,
55,4091.79,4112.82,4092.31,3781.03,4345.64,4153.33,4553.85,4541.03,4284.62,3930.26,4202.05,4601.54,4398.97,4628.72,1693,1708,4.126,0,0,0,0,
56,4089.23,4138.46,4091.79,3804.62,4342.56,4155.38,4555.38,4540.51,4285.64,3931.28,4198.97,4603.59,4396.41,4631.28,1692,1708,4.134,0,0,0,0,
57,4082.05,4135.9,4082.56,3805.13,4336.41,4158.46,4555.9,4540,4289.74,3927.18,4183.59,4596.92,4385.13,4616.41,1693,1706,4.142,0,0,0,0,
58,4085.64,4115.9,4085.13,3792.82,4337.95,4166.15,4555.9,4540.51,4291.28,3926.67,4189.74,4601.03,4386.15,4623.08,1692,1707,4.15,0,0,0,0,
59,4092.31,4126.67,4090.77,3797.95,4341.03,4168.72,4554.36,4541.03,4285.13,3932.31,4205.13,4604.1,4403.59,4642.05,1691,1708,4.158,0,0,0,0,
60,4093.33,4134.36,4092.31,3796.41,4338.97,4155.38,4551.28,4536.92,4278.46,3931.28,4202.05,4602.56,4400,4641.54,1690,1710,4.165,0,0,0,0,
61,4097.44,4111.79,4101.03,3772.31,4329.23,4153.33,4553.33,4536.41,4284.62,3924.62,4196.92,4612.31,4370.77,4635.38,1690,1710,4.173,0,0,0,0,
62,4098.97,4110.77,4102.05,3774.87,4319.49,4169.74,4557.44,4546.67,4296.41,3933.33,4200.51,4614.36,4374.87,4629.74,1689,1711,4.181,0,0,0,0,
63,4082.05,4133.33,4081.03,3812.82,4330.77,4172.82,4554.36,4548.72,4297.44,3943.08,4198.97,4598.46,4401.03,4625.64,1690,1711,4.189,0,0,0,0,
64,4076.41,4135.9,4075.38,3826.67,4353.33,4159.49,4549.74,4540,4295.9,3942.56,4200,4595.9,4402.56,4632.82,1689,1712,4.197,0,0,0,0,
65,4086.15,4136.41,4087.69,3796.41,4353.33,4152.82,4552.31,4540,4293.85,3940.51,4203.59,4600,4394.36,4635.38,1691,1710,4.205,0,0,0,0,
66,4089.74,4132.31,4085.64,3785.13,4343.59,4155.9,4554.36,4542.56,4293.33,3936.92,4194.87,4597.44,4394.36,4628.21,1690,1711,4.212,0,0,0,0,
67,4087.69,4105.13,4079.49,3791.79,4339.49,4154.87,4550.77,4536.41,4296.92,3930.77,4184.62,4595.9,4384.62,4620,1692,1710,4.221,0,0,0,0,
68,4077.95,4104.1,4078.46,3768.72,4329.23,4153.85,4548.21,4532.82,4289.74,3927.18,4183.08,4591.79,4375.9,4610.26,1691,1708,4.229,0,0,0,0,
69,4064.1,4128.21,4073.85,3762.05,4332.31,4159.49,4549.23,4534.36,4277.95,3926.15,4186.15,4580,4385.64,4598.97,1692,1709,4.236,0,0,0,0,
70,4063.59,4123.59,4070.26,3800.51,4345.64,4167.18,4549.23,4535.9,4280.51,3923.59,4184.1,4576.41,4379.49,4596.92,1692,1707,4.244,0,0,0,0,
71,4074.87,4101.54,4072.31,3819.49,4332.31,4167.18,4551.79,4536.41,4282.56,3913.85,4171.79,4580.51,4351.79,4607.18,1691,1709,4.252,0,0,0,0,
72,4076.41,4106.67,4074.36,3796.92,4321.54,4159.49,4554.87,4537.95,4277.44,3908.72,4165.13,4583.08,4348.21,4613.85,1692,1709,4.259,0,0,0,0,
73,4072.31,4128.21,4081.03,3787.18,4333.33,4156.92,4556.41,4547.18,4284.1,3925.13,4185.13,4592.31,4372.31,4618.97,1692,1711,4.267,0,0,0,0,
74,4073.33,4126.67,4084.1,3807.18,4334.87,4159.49,4557.44,4555.38,4296.41,3939.49,4203.08,4594.36,4395.38,4617.95,1692,1710,4.276,0,0,0,0,
75,4076.41,4107.18,4079.49,3798.97,4324.62,4156.41,4557.44,4552.82,4296.92,3929.74,4192.82,4585.13,4397.95,4609.23,1691,1711,4.283,0,0,0,0,
76,4072.82,4100,4082.56,3757.95,4324.1,4150.77,4556.41,4550.77,4291.79,3923.08,4181.54,4588.72,4381.54,4608.72,1692,1711,4.291,0,0,0,0,
77,4066.15,4107.18,4086.15,3758.46,4324.62,4149.74,4556.92,4553.85,4290.26,3927.69,4184.1,4601.54,4358.46,4615.9,1690,1711,4.298,0,0,0,0,
78,4071.79,4108.72,4084.62,3805.13,4323.59,4158.97,4555.9,4554.36,4293.85,3927.18,4184.62,4600,4352.82,4617.95,1692,1711,4.306,0,0,0,0,
79,4073.85,4111.28,4080,3810.26,4327.18,4165.64,4555.9,4552.82,4296.92,3925.13,4181.54,4584.62,4366.67,4604.62,1691,1708,4.315,0,0,0,0,
80,4063.08,4120.51,4077.95,3776.92,4333.33,4160,4558.97,4555.9,4297.95,3928.72,4186.15,4582.05,4372.31,4591.79,1692,1708,4.322,0,0,0,0,
81,4068.21,4108.72,4084.62,3792.82,4340.51,4155.38,4559.49,4556.92,4295.38,3927.69,4184.62,4597.44,4363.59,4604.62,1692,1706,4.33,0,0,0,0,
82,4081.03,4086.15,4091.28,3799.49,4328.72,4158.46,4557.44,4548.72,4287.18,3918.46,4174.36,4604.1,4354.87,4618.46,1691,1708,4.338,0,0,0,0,
83,4070.26,4098.46,4085.64,3753.33,4303.08,4152.82,4555.9,4538.97,4277.95,3911.28,4171.79,4589.74,4357.95,4607.69,1692,1709,4.345,0,0,0,0,
84,4057.95,4126.67,4077.95,3768.21,4310.26,4146.67,4552.82,4538.97,4278.97,3915.38,4180.51,4585.13,4357.44,4599.49,1691,1711,4.354,0,0,0,0,
85,4068.72,4128.72,4085.64,3824.1,4342.56,4152.31,4553.33,4540.51,4283.59,3923.59,4187.69,4597.44,4361.03,4610.26,1691,1711,4.363,0,0,0,0,
86,4076.41,4118.97,4090.26,3820.51,4344.1,4154.87,4556.41,4540.51,4281.54,3929.74,4186.67,4601.03,4381.03,4614.36,1690,1710,4.371,0,0,0,0,
87,4075.38,4109.23,4084.1,3788.21,4323.08,4152.82,4557.44,4541.54,4277.44,3923.59,4184.62,4598.46,4386.15,4615.38,1690,1711,4.377,0,0,0,0,
88,4076.92,4102.05,4086.67,3795.38,4326.15,4153.85,4555.38,4541.54,4278.46,3910.77,4184.1,4596.92,4367.18,4615.38,1689,1711,4.385,0,0,0,0,
89,4071.79,4119.49,4088.21,3805.13,4340,4153.33,4552.31,4536.92,4277.95,3913.33,4184.1,4587.69,4362.56,4603.08,1691,1711,4.392,0,0,0,0,
90,4067.18,4138.46,4083.08,3785.13,4337.95,4155.9,4551.28,4537.95,4280.51,3927.18,4186.15,4585.64,4372.82,4604.62,1689,1710,4.401,0,0,0,0,
91,4072.31,4128.72,4081.03,3778.46,4334.36,4161.54,4555.38,4549.23,4294.36,3931.28,4184.1,4595.9,4369.74,4616.41,1689,1710,4.408,0,0,0,0,
92,4071.79,4113.85,4080.51,3794.87,4335.9,4158.97,4556.92,4551.79,4295.38,3925.64,4182.56,4597.44,4365.64,4615.9,1690,1708,4.416,0,0,0,0,
93,4068.21,4110.26,4074.36,3806.67,4327.18,4153.85,4552.31,4536.92,4276.92,3922.05,4192.31,4594.36,4372.31,4612.31,1689,1708,4.424,0,0,0,0,
94,4074.87,4116.41,4074.87,3804.62,4328.72,4155.9,4552.31,4535.38,4280.51,3927.69,4202.05,4596.41,4386.15,4612.82,1690,1707,4.431,0,0,0,0,
95,4074.87,4124.1,4078.97,3796.41,4334.36,4156.41,4553.85,4542.05,4292.82,3928.21,4192.82,4588.72,4392.82,4604.62,1689,1707,4.439,0,0,0,0,
96,4063.59,4122.05,4073.33,3796.92,4318.97,4152.31,4548.72,4531.28,4275.9,3913.33,4178.46,4577.44,4380,4592.82,1691,1708,4.448,0,0,0,0,
97,4066.15,4118.46,4072.31,3800,4320.51,4153.33,4547.18,4524.62,4266.15,3907.18,4179.49,4584.62,4367.18,4602.56,1691,1709,4.456,0,0,0,0,
98,4075.38,4121.03,4076.92,3792.31,4345.64,4155.38,4552.31,4536.41,4281.03,3915.9,4185.13,4595.38,4371.79,4615.38,1693,1710,4.463,0,0,0,0,
99,4075.38,4124.62,4076.92,3784.62,4349.74,4158.46,4554.87,4540.51,4283.59,3914.87,4188.21,4593.33,4380.51,4608.21,1692,1710,4.471,0,0,0,0,
100,4075.9,4125.64,4078.97,3805.13,4337.95,4168.21,4557.44,4537.44,4276.41,3909.23,4189.23,4598.46,4367.18,4607.18,1693,1710,4.478,0,0,0,0,
101,4079.49,4122.05,4081.54,3826.15,4337.44,4169.23,4558.46,4541.54,4283.08,3912.82,4185.64,4604.62,4359.49,4616.92,1693,1709,4.486,0,0,0,0,
102,4078.97,4131.28,4078.46,3806.67,4327.18,4155.9,4554.87,4541.54,4284.1,3914.36,4184.62,4590.26,4380,4609.23,1692,1710,4.494,0,0,0,0,
103,4077.44,4141.54,4075.38,3795.9,4320,4149.74,4555.38,4537.44,4276.92,3909.23,4186.67,4578.97,4386.67,4601.03,1693,1708,4.502,0,0,0,0,
104,4077.95,4132.82,4076.92,3811.79,4340.51,4159.49,4557.44,4540,4284.1,3911.79,4186.67,4587.69,4374.36,4611.28,1691,1709,4.514,0,0,0,0,
105,4076.41,4128.21,4073.33,3808.21,4343.59,4167.18,4555.38,4543.59,4292.31,3915.38,4186.67,4590.26,4381.54,4609.74,1691,1709,4.518,0,0,0,0,
106,4073.33,4138.46,4065.13,3801.03,4324.1,4161.03,4554.36,4541.54,4284.1,3911.79,4185.64,4584.62,4387.69,4600,1689,1708,4.525,0,0,0,0,
107,4072.31,4139.49,4066.15,3796.92,4322.56,4151.79,4553.33,4535.38,4276.92,3908.21,4183.59,4584.1,4373.33,4599.49,1690,1710,4.533,0,0,0,0,
108,4075.9,4128.72,4075.38,3787.69,4340.51,4151.79,4551.79,4534.36,4278.97,3910.77,4185.64,4586.67,4374.87,4604.1,1690,1709,4.541,0,0,0,0,
109,4082.56,4121.03,4078.97,3796.92,4344.62,4155.38,4552.82,4536.41,4279.49,3911.79,4187.69,4593.85,4378.97,4615.38,1689,1711,4.549,0,0,0,0,
110,4084.62,4124.1,4075.38,3812.31,4331.79,4152.31,4554.87,4535.38,4278.46,3909.23,4184.1,4593.33,4371.28,4610.26,1689,1711,4.569,0,0,0,0,
111,4083.59,4141.03,4075.38,3810.77,4335.38,4151.79,4554.87,4536.41,4280,3912.31,4183.59,4587.18,4374.36,4603.08,1690,1710,4.577,0,0,0,0,
112,4084.62,4140,4077.95,3814.87,4344.1,4157.44,4553.85,4537.44,4278.97,3912.31,4186.67,4590.77,4378.46,4614.36,1691,1709,4.585,0,0,0,0,
113,4082.05,4121.03,4075.9,3809.74,4332.31,4157.44,4553.85,4538.46,4283.59,3908.21,4181.54,4594.36,4369.74,4611.79,1692,1708,4.586,0,0,0,0,
114,4078.97,4134.87,4076.41,3793.33,4328.72,4153.33,4557.44,4546.67,4295.38,3917.44,4185.13,4594.87,4375.38,4596.41,1691,1708,4.59,0,0,0,0,
115,4085.13,4164.62,4081.03,3808.21,4343.08,4156.92,4565.13,4555.9,4296.92,3927.69,4203.08,4597.44,4393.85,4604.62,1692,1708,4.597,0,0,0,0,
116,4093.33,4144.1,4086.15,3808.72,4336.92,4161.54,4565.13,4554.87,4294.36,3922.56,4202.05,4600,4392.82,4621.54,1692,1709,4.604,0,0,0,0,
117,4095.38,4105.13,4092.82,3778.97,4316.41,4155.38,4558.97,4545.13,4294.87,3911.28,4184.62,4595.9,4378.97,4618.46,1692,1710,4.611,0,0,0,0,
118,4090.77,4130.77,4088.21,3800,4324.62,4148.21,4552.82,4537.95,4287.18,3911.28,4188.21,4594.87,4378.97,4610.77,1691,1709,4.619,0,0,0,0,
119,4087.18,4179.49,4076.92,3842.56,4347.18,4152.82,4554.87,4541.54,4284.1,3922.05,4202.05,4598.46,4395.9,4614.87,1691,1711,4.634,0,0,0,0,
120,4095.9,4174.87,4079.49,3834.36,4350.77,4160.51,4561.03,4552.82,4292.82,3929.74,4201.54,4602.05,4399.49,4626.15,1690,1710,4.642,0,0,0,0,
121,4105.64,4161.03,4091.28,3817.44,4351.79,4158.46,4561.03,4553.33,4298.97,3929.74,4201.03,4604.1,4393.85,4626.67,1690,1712,4.643,0,0,0,0,
122,4102.56,4160,4091.79,3821.03,4350.26,4153.33,4555.9,4542.56,4293.85,3926.15,4203.08,4600.51,4400,4616.92,1691,1711,4.752,0,0,0,0,
123,4087.18,4140.51,4078.97,3808.21,4337.44,4152.82,4551.28,4536.92,4284.1,3918.46,4191.28,4592.31,4395.38,4613.33,1690,1711,4.757,0,0,0,0,
124,4077.95,4136.41,4070.26,3796.92,4336.92,4153.33,4549.23,4535.9,4278.46,3908.72,4182.56,4585.13,4377.95,4610.26,1691,1710,4.757,0,0,0,0,
125,4084.1,4154.87,4075.9,3813.33,4342.56,4151.79,4549.74,4536.41,4280,3909.74,4188.72,4584.1,4382.05,4609.23,1690,1709,4.757,0,0,0,0,
126,4093.85,4154.36,4086.15,3813.85,4333.33,4151.28,4552.31,4539.49,4281.54,3914.87,4197.44,4591.28,4396.92,4616.92,1691,1709,4.757,0,0,0,0,
127,4092.82,4157.44,4084.62,3795.9,4334.87,4154.36,4554.87,4540.51,4277.44,3910.26,4198.97,4595.38,4392.82,4618.97,1690,1708,4.757,0,0,0,0,
128,4089.74,4155.38,4078.97,3808.72,4344.62,4154.87,4553.85,4537.44,4278.46,3910.77,4191.28,4590.26,4381.03,4615.38,1690,1708,4.757,0,0,0,0,
0,4092.82,4128.21,4083.59,3825.64,4327.69,4149.74,4552.31,4535.9,4280,3911.28,4182.56,4590.26,4373.33,4620.51,1689,1707,4.757,0,0,0,0,
1,4090.77,4130.77,4086.67,3809.74,4319.49,4143.59,4551.79,4537.44,4277.95,3906.15,4192.31,4596.92,4380,4625.64,1689,1710,4.757,0,0,0,0,
2,4087.69,4157.95,4083.08,3805.13,4337.44,4141.54,4552.31,4538.97,4281.03,3921.03,4205.13,4594.87,4397.44,4621.03,1690,1709,4.757,0,0,0,0,
3,4086.15,4155.38,4080.51,3819.49,4331.79,4143.08,4549.74,4538.46,4280.51,3927.18,4192.31,4584.62,4395.9,4606.15,1689,1711,4.757,0,0,0,0,
4,4085.64,4153.85,4079.49,3811.28,4318.97,4148.21,4550.26,4537.95,4276.41,3903.59,4187.18,4586.67,4382.05,4603.59,1690,1710,4.757,0,0,0,0,
5,4090.26,4170.77,4080,3787.69,4336.92,4153.33,4555.9,4541.03,4277.44,3896.92,4201.54,4592.82,4378.97,4619.49,1689,1711,4.757,0,0,0,0,
6,4089.23,4164.62,4079.49,3791.79,4339.49,4150.77,4554.87,4542.56,4277.44,3905.64,4195.38,4586.15,4375.9,4618.46,1690,1712,4.757,0,0,0,0,
7,4083.59,4147.69,4076.41,3817.95,4316.92,4148.21,4550.77,4537.95,4274.87,3903.59,4179.49,4583.08,4372.31,4604.1,1691,1710,4.762,0,0,0,0,
8,4080.51,4153.85,4072.31,3823.59,4321.54,4151.28,4551.28,4534.87,4278.97,3902.56,4184.62,4585.64,4380,4606.15,1691,1711,4.769,0,0,0,0,
9,4080,4160,4073.33,3804.62,4344.1,4155.9,4553.85,4536.41,4279.49,3902.05,4188.72,4579.49,4385.64,4611.79,1692,1709,4.776,0,0,0,0,
10,4075.9,4154.36,4070.77,3798.46,4340,4154.87,4553.33,4534.87,4274.87,3897.44,4179.49,4568.72,4377.95,4600.51,1692,1709,4.784,0,0,0,0,
11,4072.31,4150.77,4062.56,3805.13,4330.77,4152.31,4553.33,4534.87,4283.08,3905.13,4178.97,4568.72,4370.77,4592.82,1693,1708,4.793,0,0,0,0,
12,4075.9,4153.85,4068.72,3801.54,4336.41,4154.87,4554.87,4543.59,4290.26,3914.87,4185.13,4578.97,4380.51,4601.54,1693,1708,4.799,0,0,0,0,
13,4087.18,4160,4085.13,3804.62,4331.79,4154.36,4555.38,4553.33,4283.08,3912.31,4192.31,4589.74,4394.36,4619.49,1693,1708,4.807,0,0,0,0,
14,4100,4167.69,4093.85,3816.92,4326.15,4149.74,4554.87,4550.26,4278.97,3912.82,4202.05,4601.54,4395.38,4633.33,1692,1711,4.815,0,0,0,0,
15,4100,4176.92,4090.77,3825.13,4335.38,4152.82,4555.38,4545.13,4283.08,3915.9,4206.15,4605.13,4401.54,4633.85,1693,1711,4.823,0,0,0,0,
16,4094.36,4176.41,4088.72,3815.9,4336.41,4155.9,4553.33,4549.23,4285.64,3918.97,4205.13,4601.54,4415.38,4630.26,1691,1713,4.831,0,0,0,0,
17,4097.95,4159.49,4094.87,3789.23,4325.13,4146.15,4552.31,4552.82,4288.21,3921.54,4204.62,4601.54,4414.87,4629.74,1691,1714,4.838,0,0,0,0,
18,4094.87,4148.72,4093.85,3781.03,4320.51,4142.56,4554.87,4553.33,4294.87,3923.08,4205.13,4605.13,4410.77,4628.21,1690,1713,4.846,0,0,0,0,
19,4076.41,4159.49,4077.44,3798.46,4322.56,4152.31,4556.41,4552.82,4296.41,3925.64,4205.64,4601.03,4416.92,4620.51,1690,1712,4.854,0,0,0,0,
20,4067.69,4162.56,4065.13,3807.69,4323.59,4154.87,4554.87,4547.18,4288.72,3918.97,4199.49,4584.1,4412.31,4604.62,1691,1709,4.862,0,0,0,0,
21,4072.31,4148.72,4062.56,3798.97,4327.18,4149.23,4553.85,4540,4278.46,3906.67,4185.13,4569.23,4395.9,4593.33,1690,1708,4.87,0,0,0,0,
22,4067.69,4149.74,4057.95,3795.38,4336.41,4150.77,4553.85,4540,4276.92,3903.59,4177.95,4565.13,4392.31,4593.85,1691,1707,4.877,0,0,0,0,
23,4065.64,4175.38,4058.97,3806.67,4346.15,4157.44,4555.38,4542.56,4285.13,3912.31,4186.15,4571.28,4400,4599.49,1691,1708,4.886,0,0,0,0,
24,4075.38,4185.64,4067.69,3810.26,4343.08,4153.33,4550.77,4536.92,4276.92,3909.23,4189.23,4578.46,4393.85,4598.97,1690,1707,4.893,0,0,0,0,
25,4075.9,4172.82,4070.26,3807.18,4335.9,4146.15,4544.1,4532.31,4261.03,3895.38,4182.05,4580,4385.13,4600,1691,1709,4.901,0,0,0,0,
26,4075.9,4168.72,4072.82,3809.23,4339.49,4148.72,4550.77,4541.03,4276.41,3900.51,4186.67,4582.56,4398.97,4610.26,1692,1709,4.909,0,0,0,0,
27,4081.54,4164.62,4077.95,3810.26,4338.97,4152.31,4558.46,4557.44,4304.1,3922.05,4202.05,4588.72,4414.36,4610.77,1691,1711,4.917,0,0,0,0,
28,4079.49,4147.18,4075.9,3800.51,4323.59,4150.77,4556.92,4561.54,4302.05,3928.72,4204.1,4589.74,4413.85,4603.59,1692,1712,4.924,0,0,0,0,
29,4077.44,4140.51,4073.85,3791.79,4315.9,4149.74,4558.97,4557.44,4294.87,3925.13,4200.51,4588.21,4409.74,4611.79,1692,1710,4.933,0,0,0,0,
30,4075.9,4151.28,4071.28,3786.67,4326.15,4150.26,4560,4555.38,4298.46,3924.1,4202.56,4587.18,4404.62,4614.87,1692,1710,4.941,0,0,0,0,
31,4067.69,4148.21,4059.49,3789.23,4333.33,4152.31,4555.38,4548.21,4290.26,3919.49,4197.44,4582.05,4398.46,4603.08,1693,1708,4.949,0,0,0,0,
32,4060,4124.1,4055.9,3777.95,4317.44,4150.77,4549.74,4538.46,4276.41,3907.18,4182.56,4571.28,4387.69,4594.36,1692,1709,4.957,0,0,0,0,
33,4059.49,4113.33,4065.64,3757.95,4304.1,4140.51,4540.51,4536.41,4270.26,3893.85,4177.44,4565.64,4376.41,4586.15,1692,1708,4.964,0,0,0,0,
34,4066.15,4133.33,4071.28,3786.15,4326.15,4134.87,4539.49,4537.95,4271.79,3896.92,4189.23,4575.9,4383.59,4592.31,1692,1707,4.971,0,0,0,0,
35,4069.74,4154.87,4067.18,3823.59,4339.49,4140.51,4550.77,4540,4280,3909.74,4199.49,4585.64,4397.95,4612.31,1692,1705,4.979,0,0,0,0,
36,4073.33,4156.92,4070.26,3808.72,4321.03,4144.62,4555.38,4545.64,4288.21,3912.82,4199.49,4586.67,4403.59,4613.33,1691,1705,4.996,0,0,0,0,
37,4083.08,4157.44,4079.49,3796.92,4322.56,4141.54,4551.79,4553.33,4294.36,3911.28,4201.03,4588.21,4411.79,4607.69,1689,1710,4.997,0,0,0,0,
38,4092.82,4156.41,4080.51,3810.26,4336.92,4134.36,4551.79,4555.38,4294.36,3912.31,4205.13,4594.36,4410.26,4620.51,1690,1712,5.003,0,0,0,0,
39,4093.85,4136.92,4081.54,3800,4328.21,4135.9,4552.31,4552.31,4285.64,3918.97,4205.13,4598.97,4394.87,4625.64,1690,1713,5.01,0,0,0,0,
40,4086.15,4136.92,4080,3797.95,4328.72,4146.67,4552.82,4551.28,4279.49,3926.15,4202.05,4594.36,4400.51,4618.46,1689,1713,5.018,0,0,0,0,
41,4075.9,4153.85,4072.82,3811.28,4340,4146.15,4553.85,4553.33,4282.05,3920,4200,4588.21,4406.15,4615.38,1690,1711,5.026,0,0,0,0,
42,4068.72,4133.85,4073.33,3776.92,4333.33,4140,4552.82,4551.79,4282.05,3908.72,4195.38,4585.64,4390.77,4605.64,1690,1711,5.034,0,0,0,0,
43,4062.56,4117.44,4071.28,3755.9,4326.15,4149.23,4553.33,4552.31,4285.13,3909.74,4189.23,4577.95,4386.15,4586.15,1691,1708,5.05,0,0,0,0,
44,4053.33,4133.33,4055.9,3793.85,4327.69,4157.95,4555.38,4550.77,4289.23,3909.23,4184.1,4566.67,4389.23,4580.51,1690,1708,5.051,0,0,0,0,
45,4056.92,4135.9,4056.41,3815.38,4334.36,4152.82,4555.9,4553.33,4295.9,3914.36,4190.26,4574.36,4392.31,4596.92,1692,1708,5.057,0,0,0,0,
46,4074.87,4130.26,4080.51,3788.21,4338.97,4145.13,4557.95,4564.62,4309.23,3929.74,4210.77,4598.97,4406.67,4617.95,1690,1709,5.066,0,0,0,0,
47,4082.56,4144.1,4090.77,3789.74,4327.69,4140,4557.95,4568.21,4311.28,3932.82,4218.97,4604.62,4414.36,4620.51,1691,1709,5.073,0,0,0,0,
48,4082.56,4129.23,4086.67,3815.38,4309.23,4135.9,4553.85,4555.38,4294.87,3924.62,4208.72,4599.49,4404.1,4607.69,1692,1708,5.081,0,0,0,0,
49,4082.56,4108.21,4089.23,3790.77,4307.69,4138.46,4552.31,4542.05,4280.51,3915.38,4202.05,4598.46,4390.77,4601.54,1691,1709,5.089,0,0,0,0,
50,4074.87,4142.05,4084.62,3768.72,4321.54,4141.03,4551.79,4541.03,4277.44,3902.05,4198.97,4591.28,4383.08,4601.54,1692,1708,5.097,0,0,0,0,
51,4067.69,4156.92,4069.23,3791.79,4324.1,4137.44,4548.72,4540.51,4276.41,3892.31,4187.69,4580,4379.49,4597.95,1691,1710,5.104,0,0,0,0,
52,4071.28,4131.79,4065.13,3809.23,4322.05,4142.56,4551.28,4538.97,4276.41,3896.41,4183.59,4575.9,4382.56,4593.33,1691,1710,5.112,0,0,0,0,
53,4070.26,4134.36,4066.15,3803.08,4326.15,4153.85,4555.9,4541.54,4282.05,3899.49,4189.23,4576.41,4384.62,4591.28,1691,1711,5.121,0,0,0,0,
54,4057.44,4143.08,4055.9,3791.28,4317.95,4144.62,4548.21,4536.92,4280,3887.18,4181.03,4566.67,4373.33,4588.72,1692,1710,5.128,0,0,0,0,
55,4048.72,4131.79,4046.15,3784.62,4311.79,4132.31,4536.92,4527.69,4269.23,3876.41,4169.23,4554.87,4358.46,4581.54,1692,1709,5.136,0,0,0,0,
56,4058.46,4138.46,4050.77,3793.33,4333.85,4145.64,4538.46,4528.72,4272.31,3887.18,4177.44,4558.46,4366.67,4581.54,1693,1708,5.143,0,0,0,0,
57,4073.85,4143.08,4060.51,3805.13,4345.64,4153.85,4547.18,4546.15,4292.31,3906.67,4193.33,4572.31,4389.23,4591.79,1692,1706,5.151,0,0,0,0,
58,4075.38,4135.38,4068.72,3785.13,4324.62,4142.05,4555.9,4555.38,4302.56,3913.33,4198.97,4580,4397.44,4603.08,1692,1709,5.159,0,0,0,0,
59,4073.33,4158.97,4067.69,3778.97,4323.08,4137.95,4552.31,4547.18,4293.33,3912.31,4200,4581.03,4396.41,4608.72,1692,1709,5.167,0,0,0,0,
60,4081.54,4171.79,4066.67,3813.33,4332.82,4140,4540,4539.49,4283.08,3913.33,4202.56,4587.69,4396.92,4616.92,1692,1712,5.175,0,0,0,0,
61,4089.23,4144.62,4071.79,3823.08,4317.44,4143.08,4543.59,4539.49,4281.03,3911.28,4208.21,4590.26,4404.62,4625.13,1693,1712,5.183,0,0,0,0,
62,4092.82,4146.15,4074.36,3804.1,4313.33,4148.21,4551.79,4541.03,4281.03,3911.79,4207.18,4584.62,4411.79,4622.56,1690,1713,5.197,0,0,0,0,
63,4107.69,4191.79,4074.36,3809.23,4332.82,4145.13,4544.1,4534.87,4278.46,3907.69,4197.95,4586.15,4407.18,4639.49,1691,1712,5.2,0,0,0,0,
64,4137.95,4209.23,4085.13,3822.56,4332.31,4137.44,4537.95,4527.18,4274.87,3899.49,4205.13,4595.9,4403.59,4677.44,1690,1710,5.207,0,0,0,0,
65,4179.49,4190.77,4104.1,3810.26,4310.26,4135.38,4541.03,4525.13,4269.74,3893.85,4215.9,4606.15,4408.72,4706.67,1690,1710,5.214,0,0,0,0,
66,4237.95,4220,4118.97,3827.69,4310.26,4136.41,4540.51,4517.95,4262.56,3887.69,4205.13,4614.36,4412.31,4744.1,1690,1710,5.222,0,0,0,0,
67,4303.59,4286.67,4136.41,3872.31,4323.59,4137.44,4536.41,4508.72,4260,3878.46,4200.51,4628.72,4416.92,4809.23,1691,1709,5.23,0,0,0,0,
68,4350.26,4306.67,4158.97,3874.87,4318.97,4133.85,4531.28,4510.26,4262.56,3883.59,4215.9,4647.18,4428.72,4860,1691,1708,5.237,0,0,0,0,
69,4361.54,4295.9,4169.23,3868.21,4316.41,4123.08,4526.15,4513.85,4264.1,3896.41,4223.59,4662.56,4434.36,4869.74,1690,1708,5.246,0,0,0,0,
70,4348.72,4302.05,4163.59,3884.1,4321.54,4122.05,4527.69,4508.21,4257.44,3889.74,4221.54,4664.62,4429.74,4861.03,1691,1707,5.253,0,0,0,0,
71,4324.1,4292.31,4154.36,3862.56,4313.85,4125.64,4524.62,4501.54,4243.08,3871.79,4215.38,4648.21,4416.41,4840,1690,1709,5.261,0,0,0,0,
72,4294.87,4266.67,4145.64,3829.23,4305.13,4120.51,4521.03,4503.08,4238.97,3870.77,4203.08,4633.85,4405.13,4807.18,1692,1708,5.269,0,0,0,0,
73,4271.28,4260,4134.87,3844.62,4316.41,4124.62,4531.79,4509.74,4253.85,3886.15,4203.08,4629.74,4409.74,4777.95,1690,1709,5.276,0,0,0,0,
74,4255.9,4253.33,4130.26,3859.49,4331.28,4137.44,4542.05,4520,4264.62,3897.44,4216.41,4630.26,4412.82,4760,1691,1711,5.284,0,0,0,0,
75,4238.97,4236.41,4128.21,3846.67,4327.18,4137.95,4540.51,4524.62,4262.56,3896.92,4219.49,4630.26,4404.1,4744.1,1690,1711,5.292,0,0,0,0,
76,4211.28,4220.51,4117.95,3837.95,4312.82,4132.31,4540.51,4526.15,4269.23,3895.38,4209.74,4622.05,4400,4715.9,1691,1712,5.3,0,0,0,0,
77,4184.62,4212.31,4106.67,3830.26,4314.87,4135.38,4543.59,4536.92,4283.08,3900,4203.59,4612.82,4396.92,4690.77,1690,1711,5.308,0,0,0,0,
78,4166.15,4212.82,4101.03,3829.74,4327.18,4138.97,4543.08,4537.95,4277.95,3900.51,4202.05,4608.21,4381.03,4680.51,1691,1711,5.316,0,0,0,0,
79,4148.72,4194.87,4092.82,3835.9,4324.62,4136.92,4542.05,4524.1,4263.08,3892.31,4192.31,4599.49,4368.21,4664.62,1690,1709,5.323,0,0,0,0,
80,4129.23,4162.56,4082.56,3801.54,4313.85,4137.44,4539.49,4518.97,4264.62,3891.28,4181.03,4585.64,4370.26,4636.92,1691,1708,5.331,0,0,0,0,
81,4114.36,4165.13,4075.9,3769.74,4318.46,4140,4538.97,4523.59,4268.72,3892.82,4180,4574.87,4367.69,4619.49,1691,1705,5.339,0,0,0,0,
82,4108.21,4190.77,4074.36,3799.49,4338.46,4141.03,4542.05,4522.05,4261.54,3888.72,4185.13,4572.31,4363.08,4618.46,1690,1707,5.347,0,0,0,0,
83,4104.62,4172.31,4073.33,3822.56,4336.92,4140,4540.51,4519.49,4261.03,3887.69,4182.56,4574.87,4364.1,4616.92,1692,1706,5.355,0,0,0,0,
84,4103.08,4149.74,4073.85,3813.33,4325.13,4138.46,4537.44,4524.1,4274.36,3893.85,4182.05,4578.46,4368.21,4611.28,1690,1708,5.362,0,0,0,0,
85,4106.67,4176.92,4078.46,3825.13,4332.31,4137.44,4537.95,4524.62,4275.38,3896.92,4193.85,4585.13,4371.28,4620,1691,1710,5.377,0,0,0,0,
86,4103.08,4187.18,4078.97,3832.82,4328.72,4133.85,4537.95,4519.49,4255.9,3895.38,4198.46,4589.23,4367.69,4624.1,1690,1710,5.378,0,0,0,0,
87,4088.21,4160.51,4070.26,3809.74,4309.74,4132.31,4537.95,4517.95,4251.28,3894.36,4187.18,4578.97,4366.67,4604.1,1689,1711,5.386,0,0,0,0,
88,4077.44,4157.95,4063.59,3803.08,4322.05,4136.92,4539.49,4522.05,4267.69,3895.38,4181.54,4568.72,4374.87,4598.46,1690,1711,5.394,0,0,0,0,
89,4078.97,4174.36,4066.15,3814.36,4342.56,4139.49,4539.49,4525.13,4271.79,3895.9,4187.69,4572.31,4374.36,4610.77,1690,1711,5.402,0,0,0,0,
90,4076.92,4164.1,4065.64,3806.15,4325.64,4134.36,4538.46,4522.05,4262.56,3893.33,4185.64,4572.31,4362.05,4597.95,1690,1710,5.409,0,0,0,0,
91,4066.15,4154.87,4059.49,3797.95,4309.74,4133.33,4537.44,4520,4267.18,3893.33,4180.51,4564.62,4356.92,4578.97,1690,1711,5.417,0,0,0,0,
92,4058.97,4160,4053.85,3805.13,4323.59,4139.49,4537.95,4521.54,4274.36,3895.38,4182.56,4563.08,4356.92,4584.1,1690,1709,5.426,0,0,0,0,
93,4066.15,4145.64,4064.62,3796.41,4330.26,4143.08,4539.49,4522.56,4269.23,3892.82,4183.08,4568.21,4358.46,4590.26,1692,1709,5.434,0,0,0,0,
94,4073.33,4134.87,4076.41,3781.54,4323.08,4141.03,4541.03,4522.05,4265.13,3891.79,4184.1,4572.82,4364.1,4587.18,1692,1710,5.441,0,0,0,0,
95,4059.49,4157.95,4058.46,3806.67,4329.23,4138.46,4535.9,4517.95,4263.08,3891.28,4183.59,4568.21,4362.05,4583.59,1693,1711,5.448,0,0,0,0,
96,4054.87,4177.95,4046.67,3840,4348.72,4145.13,4534.87,4515.9,4262.05,3892.82,4183.08,4567.18,4361.03,4589.23,1692,1712,5.456,0,0,0,0,
97,4077.44,4158.46,4071.79,3826.67,4346.67,4150.77,4545.13,4523.08,4268.72,3903.08,4195.38,4584.1,4373.85,4607.69,1692,1713,5.464,0,0,0,0,
98,4084.1,4150.77,4081.03,3808.21,4325.13,4142.56,4548.21,4526.67,4270.26,3905.13,4203.59,4589.74,4378.46,4608.72,1692,1714,5.472,0,0,0,0,
99,4066.15,4174.87,4061.03,3823.59,4325.13,4135.9,4539.49,4522.05,4265.13,3897.95,4193.33,4573.85,4372.82,4592.82,1692,1715,5.483,0,0,0,0,
100,4063.59,4178.97,4063.59,3818.97,4340,4137.44,4537.44,4522.05,4269.74,3902.05,4189.23,4570.26,4376.41,4593.33,1692,1713,5.488,0,0,0,0,
101,4072.31,4165.13,4080,3800.51,4341.54,4140.51,4547.18,4526.67,4282.56,3911.79,4197.95,4584.62,4380,4604.62,1690,1713,5.5,0,0,0,0,
102,4067.69,4164.62,4073.85,3817.95,4334.87,4142.05,4550.77,4527.18,4281.54,3906.67,4197.44,4589.23,4374.36,4597.44,1691,1711,5.503,0,0,0,0,
103,4055.9,4166.67,4059.49,3814.87,4324.62,4141.03,4542.56,4523.59,4265.64,3891.28,4184.1,4573.85,4366.15,4583.59,1691,1710,5.511,0,0,0,0,
104,4052.31,4147.18,4061.03,3782.05,4324.1,4143.08,4539.49,4523.08,4267.18,3890.26,4180,4564.62,4363.08,4582.05,1691,1709,5.519,0,0,0,0,
105,4063.08,4133.85,4069.74,3805.13,4342.56,4154.36,4543.08,4526.67,4282.56,3902.56,4192.31,4578.97,4369.23,4590.26,1692,1709,5.527,0,0,0,0,
106,4065.13,4155.9,4068.72,3844.62,4349.74,4155.9,4541.54,4520,4274.36,3904.1,4196.92,4583.59,4372.82,4592.31,1692,1710,5.535,0,0,0,0,
107,4051.79,4177.95,4059.49,3821.03,4335.9,4139.49,4535.38,4511.79,4256.92,3893.85,4186.15,4569.23,4369.74,4585.13,1692,1710,5.542,0,0,0,0,
108,4052.82,4166.15,4056.41,3801.54,4333.33,4133.85,4534.87,4515.9,4263.59,3893.85,4183.59,4570.77,4370.77,4583.59,1692,1711,5.551,0,0,0,0,
109,4063.59,4150.26,4064.1,3822.05,4339.49,4138.46,4536.92,4514.87,4268.21,3894.87,4189.23,4582.56,4370.26,4587.69,1692,1710,5.558,0,0,0,0,
110,4054.87,4155.38,4067.69,3820.51,4333.85,4137.44,4537.95,4509.23,4257.95,3889.74,4184.62,4575.9,4361.54,4589.23,1692,1713,5.566,0,0,0,0,
111,4048.21,4150.26,4062.56,3803.59,4332.31,4140.51,4538.46,4515.9,4263.59,3897.44,4187.69,4570.26,4365.64,4589.23,1692,1711,5.574,0,0,0,0,
112,4063.08,4135.38,4066.67,3814.87,4336.92,4146.67,4540.51,4527.69,4279.49,3910.77,4202.05,4581.03,4380.51,4595.38,1691,1712,5.582,0,0,0,0,
113,4067.69,4151.28,4075.38,3826.15,4330.26,4140.51,4547.69,4531.28,4283.59,3907.69,4202.56,4585.64,4382.56,4598.97,1691,1710,5.589,0,0,0,0,
114,4058.97,4175.38,4075.38,3798.46,4326.67,4141.54,4551.28,4536.92,4281.03,3907.69,4196.92,4582.05,4381.54,4596.92,1689,1709,5.597,0,0,0,0,
115,4060.51,4163.08,4073.33,3782.05,4336.41,4154.87,4545.13,4540.51,4285.13,3913.33,4202.56,4584.1,4384.62,4597.95,1690,1708,5.606,0,0,0,0,
116,4061.03,4137.95,4067.18,3816.41,4335.9,4154.36,4537.95,4527.69,4278.46,3903.08,4196.41,4578.97,4375.38,4593.85,1690,1707,5.613,0,0,0,0,
117,4050.77,4151.28,4055.9,3838.97,4325.64,4144.62,4538.97,4517.95,4268.72,3893.33,4182.05,4567.69,4363.59,4582.56,1689,1708,5.621,0,0,0,0,
118,4047.18,4173.33,4056.92,3828.21,4340.51,4147.69,4546.67,4532.31,4286.15,3909.23,4190.77,4575.38,4371.79,4585.13,1690,1707,5.628,0,0,0,0,
119,4055.38,4168.72,4066.67,3823.59,4360.51,4156.92,4549.74,4546.67,4298.97,3917.95,4207.69,4587.69,4387.18,4600,1691,1709,5.636,0,0,0,0,
120,4053.85,4149.23,4068.72,3807.69,4339.49,4149.74,4542.56,4529.23,4278.97,3897.44,4197.44,4580,4375.9,4598.46,1692,1710,5.653,0,0,0,0,
121,4042.56,4139.49,4063.08,3795.9,4319.49,4134.87,4536.41,4518.97,4269.74,3895.38,4185.64,4569.74,4361.54,4586.67,1692,1710,5.654,0,0,0,0,
122,4041.54,4148.72,4054.87,3820.51,4338.97,4142.56,4542.05,4535.9,4284.62,3916.92,4198.97,4573.33,4377.95,4587.18,1693,1710,5.66,0,0,0,0,
123,4047.18,4155.9,4053.33,3808.72,4342.56,4153.85,4543.08,4534.87,4281.03,3914.36,4203.08,4572.82,4387.69,4589.23,1693,1711,5.668,0,0,0,0,
124,4044.1,4150.26,4056.41,3784.1,4325.13,4145.64,4540,4523.59,4270.77,3902.05,4192.31,4567.18,4373.33,4584.1,1694,1712,5.682,0,0,0,0,
125,4044.1,4146.67,4060.51,3810.26,4331.79,4144.1,4547.69,4535.38,4289.74,3916.41,4200.51,4573.85,4379.49,4585.64,1692,1710,5.683,0,0,0,0,
126,4057.95,4158.46,4069.74,3827.69,4346.67,4156.92,4556.41,4547.18,4309.23,3935.38,4216.41,4587.18,4400.51,4601.54,1692,1708,5.692,0,0,0,0,
127,4061.54,4169.74,4071.79,3818.97,4342.05,4155.9,4554.36,4542.56,4304.62,3925.64,4208.21,4587.18,4389.74,4604.1,1692,1704,5.699,0,0,0,0,
128,4051.28,4167.69,4061.03,3819.49,4332.31,4150.26,4545.64,4537.44,4294.36,3911.79,4193.33,4580,4369.23,4588.72,1691,1706,5.707,0,0,0,0,
0,4051.28,4165.64,4062.05,3820.51,4337.44,4152.31,4538.97,4534.87,4290.77,3920.51,4197.95,4581.54,4377.95,4588.72,1690,1706,5.715,0,0,0,0,
1,4062.05,4168.72,4076.92,3814.36,4351.79,4153.85,4540,4535.38,4288.72,3931.28,4207.18,4589.74,4389.23,4606.67,1690,1710,5.722,0,0,0,0,
2,4062.56,4171.79,4077.44,3818.46,4355.9,4151.79,4547.69,4536.41,4282.05,3917.44,4204.1,4588.72,4380.51,4607.18,1689,1712,5.731,0,0,0,0,
3,4052.31,4168.21,4065.64,3826.67,4343.08,4143.08,4549.23,4529.74,4270.26,3896.92,4197.44,4583.59,4373.33,4594.36,1690,1714,5.738,0,0,0,0,
4,4050.77,4164.1,4067.69,3814.87,4336.92,4137.95,4544.62,4529.74,4269.23,3899.49,4200,4585.13,4379.49,4595.38,1690,1712,5.752,0,0,0,0,
5,4053.85,4166.67,4073.33,3803.59,4344.1,4142.56,4543.08,4538.46,4280,3913.33,4204.62,4587.69,4384.62,4600,1689,1713,5.759,0,0,0,0,
6,4054.87,4161.03,4070.26,3812.31,4345.13,4144.1,4541.03,4537.95,4284.1,3915.38,4203.59,4587.69,4382.56,4594.36,1691,1711,5.763,0,0,0,0,
7,4052.82,4133.85,4065.64,3815.38,4330.26,4137.95,4540,4526.67,4278.97,3903.08,4201.54,4583.08,4374.87,4588.21,1689,1710,5.769,0,0,0,0,
8,4042.05,4135.9,4058.97,3801.54,4321.54,4137.95,4537.95,4519.49,4276.92,3896.41,4196.41,4573.33,4369.23,4586.67,1691,1710,5.783,0,0,0,0,
9,4038.97,4179.49,4053.85,3818.97,4340,4146.67,4540,4526.67,4282.56,3907.18,4197.44,4574.87,4376.92,4591.79,1693,1708,5.791,0,0,0,0,
10,4049.23,4188.72,4060.51,3842.56,4353.33,4156.41,4547.18,4539.49,4289.23,3915.9,4207.69,4585.64,4387.18,4600,1691,1708,5.795,0,0,0,0,
11,4052.31,4162.56,4065.13,3822.56,4342.05,4157.95,4546.67,4535.38,4285.13,3913.85,4208.72,4589.23,4383.08,4605.13,1693,1707,5.801,0,0,0,0,
12,4048.72,4165.13,4058.97,3813.33,4339.49,4148.72,4537.95,4522.56,4271.79,3908.21,4200,4583.08,4380.51,4601.54,1693,1707,5.809,0,0,0,0,
13,4051.79,4177.95,4059.49,3823.08,4344.62,4142.05,4538.46,4523.08,4265.13,3903.08,4198.97,4577.44,4381.03,4593.85,1692,1707,5.817,0,0,0,0,
14,4047.69,4160.51,4060,3812.31,4328.21,4140,4541.03,4526.15,4263.08,3892.82,4197.44,4572.82,4367.69,4587.69,1693,1709,5.827,0,0,0,0,
15,4041.03,4150.26,4050.77,3810.77,4323.08,4136.92,4537.44,4523.08,4269.23,3891.79,4190.26,4571.28,4364.1,4584.1,1691,1711,5.832,0,0,0,0,
16,4051.28,4150.77,4052.82,3806.67,4332.31,4141.54,4539.49,4524.62,4282.56,3905.13,4194.36,4571.79,4377.44,4584.1,1691,1712,5.844,0,0,0,0,
17,4055.38,4148.72,4060,3801.03,4324.1,4149.23,4541.54,4529.23,4280.51,3904.1,4201.54,4573.33,4377.95,4588.21,1690,1710,5.849,0,0,0,0,
18,4048.72,4163.59,4056.41,3822.05,4331.28,4147.69,4538.46,4531.79,4274.87,3898.46,4201.03,4581.03,4376.41,4596.41,1691,1710,5.857,0,0,0,0,
19,4053.33,4176.92,4060.51,3821.54,4355.38,4146.15,4546.67,4541.54,4291.28,3910.26,4203.59,4587.18,4385.64,4602.56,1691,1709,5.863,0,0,0,0,
20,4060,4158.97,4068.21,3802.05,4349.23,4152.31,4552.31,4542.05,4300,3910.77,4204.62,4586.67,4379.49,4598.97,1691,1709,5.872,0,0,0,0,
21,4054.36,4149.23,4059.49,3822.05,4335.9,4154.36,4543.59,4526.67,4280.51,3891.28,4197.95,4583.08,4368.21,4594.36,1692,1708,5.879,0,0,0,0,
22,4052.31,4170.77,4057.44,3845.64,4352.31,4151.28,4546.15,4535.38,4284.62,3900,4206.15,4584.1,4387.69,4603.08,1691,1709,5.887,0,0,0,0,
23,4058.46,4178.46,4066.67,3828.72,4354.36,4150.26,4559.49,4555.38,4306.15,3923.59,4220,4588.72,4405.13,4612.82,1692,1709,5.895,0,0,0,0,
24,4063.59,4168.21,4067.18,3823.08,4330.26,4151.79,4560.51,4546.67,4294.87,3912.82,4215.9,4587.69,4394.36,4614.87,1691,1709,5.902,0,0,0,0,
25,4067.18,4163.59,4064.62,3835.9,4329.23,4150.77,4550.77,4529.74,4273.33,3893.85,4208.72,4585.13,4385.64,4614.87,1692,1711,5.911,0,0,0,0,
26,4065.13,4169.74,4063.08,3830.26,4342.56,4140.51,4544.1,4527.69,4276.92,3895.38,4210.77,4585.13,4388.21,4607.18,1691,1710,5.919,0,0,0,0,
27,4064.1,4182.05,4063.08,3830.77,4344.62,4134.87,4542.05,4531.28,4284.1,3901.54,4213.33,4586.15,4394.87,4603.08,1690,1711,5.926,0,0,0,0,
28,4068.21,4179.49,4068.72,3833.85,4340.51,4142.56,4542.05,4527.69,4279.49,3898.46,4209.23,4585.64,4395.38,4611.28,1692,1710,5.934,0,0,0,0,
29,4068.72,4166.15,4069.74,3830.77,4340.51,4144.1,4539.49,4523.59,4275.38,3892.82,4203.59,4586.15,4387.69,4615.9,1691,1711,5.942,0,0,0,0,
30,4069.23,4172.31,4067.69,3831.28,4343.08,4145.64,4541.54,4530.26,4281.03,3898.46,4206.15,4591.28,4387.69,4616.92,1691,1710,5.949,0,0,0,0,
31,4076.41,4185.64,4073.33,3833.33,4343.08,4151.28,4545.13,4540,4289.23,3912.31,4217.44,4600,4400.51,4629.23,1692,1711,5.957,0,0,0,0,
32,4085.13,4190.26,4075.9,3834.36,4343.08,4146.15,4541.54,4531.28,4286.15,3911.79,4221.03,4602.05,4406.15,4641.54,1692,1709,5.966,0,0,0,0,
33,4098.97,4194.36,4074.36,3830.26,4341.54,4139.49,4537.95,4518.46,4278.46,3897.95,4212.31,4595.9,4401.03,4652.31,1691,1709,5.973,0,0,0,0,
34,4127.18,4200.51,4084.62,3828.21,4334.36,4138.46,4537.44,4520,4276.41,3892.82,4211.79,4597.95,4405.13,4678.97,1692,1710,5.981,0,0,0,0,
35,4168.72,4211.79,4105.13,3847.69,4324.1,4130.26,4538.46,4523.59,4278.46,3903.08,4221.54,4616.41,4417.95,4720.51,1691,1710,5.988,0,0,0,0,
36,4222.56,4232.31,4124.1,3861.03,4320.51,4120,4534.36,4522.05,4281.54,3908.21,4230.26,4636.92,4426.15,4767.18,1691,1711,5.996,0,0,0,0,
37,4278.97,4274.36,4142.56,3866.67,4328.72,4121.03,4526.15,4514.36,4271.28,3900.51,4231.28,4649.23,4431.28,4814.36,1691,1711,6.004,0,0,0,0,
38,4330.26,4324.1,4165.13,3903.08,4332.82,4126.15,4532.31,4510.26,4252.31,3890.77,4236.41,4668.72,4437.95,4867.69,1691,1713,6.012,0,0,0,0,
39,4364.62,4340,4177.44,3934.36,4329.23,4121.54,4537.95,4514.87,4254.36,3890.26,4248.72,4689.74,4449.23,4908.21,1692,1711,6.02,0,0,0,0,
40,4375.38,4331.79,4177.44,3920,4331.79,4115.38,4528.21,4518.97,4265.13,3895.9,4248.72,4691.79,4458.97,4920,1690,1711,6.028,0,0,0,0,
41,4373.85,4325.64,4185.64,3900.51,4325.13,4114.87,4528.72,4516.41,4263.59,3891.28,4243.59,4687.18,4454.36,4924.62,1691,1711,6.04,0,0,0,0,
42,4364.1,4311.28,4186.67,3894.87,4312.31,4118.46,4539.49,4514.36,4262.05,3880.51,4246.67,4688.72,4444.1,4922.05,1690,1709,6.044,0,0,0,0,
43,4347.69,4301.03,4172.31,3894.87,4323.08,4120,4537.44,4517.44,4264.1,3883.59,4245.13,4683.59,4447.18,4899.49,1691,1707,6.052,0,0,0,0,
44,4331.79,4310.77,4170.77,3901.03,4337.95,4122.05,4535.38,4523.59,4262.56,3893.33,4235.38,4672.82,4450.77,4874.87,1689,1706,6.059,0,0,0,0,
45,4310.26,4293.33,4170.26,3885.64,4329.74,4126.67,4541.03,4523.08,4264.62,3895.38,4232.31,4666.67,4435.9,4854.36,1690,1705,6.067,0,0,0,0,
46,4284.1,4257.95,4155.38,3874.87,4324.62,4128.21,4539.49,4519.49,4264.1,3892.82,4231.28,4659.49,4421.54,4825.13,1689,1706,6.075,0,0,0,0,
47,4263.59,4262.05,4147.18,3892.82,4330.26,4125.13,4536.41,4522.05,4258.97,3893.85,4227.69,4653.33,4425.64,4802.56,1689,1709,6.082,0,0,0,0,
48,4244.62,4265.64,4141.54,3883.08,4330.26,4124.1,4537.44,4522.05,4259.49,3892.82,4229.74,4650.26,4428.72,4786.67,1688,1709,6.091,0,0,0,0,
49,4221.54,4243.08,4128.72,3859.49,4337.95,4127.18,4538.97,4522.56,4268.72,3895.38,4231.79,4644.62,4422.56,4759.49,1688,1711,6.098,0,0,0,0,
50,4194.87,4225.64,4117.44,3864.62,4337.95,4128.72,4538.97,4525.13,4275.38,3900,4222.05,4634.36,4412.82,4730.77,1690,1711,6.106,0,0,0,0,
51,4165.13,4220,4104.1,3861.54,4329.23,4124.62,4537.95,4524.1,4277.44,3894.87,4212.82,4621.03,4402.05,4704.62,1689,1712,6.114,0,0,0,0,
52,4148.72,4215.9,4096.92,3845.13,4339.49,4128.21,4540,4525.64,4282.05,3894.36,4216.92,4616.92,4400.51,4689.23,1690,1710,6.121,0,0,0,0,
53,4140.51,4202.56,4099.49,3844.1,4341.03,4135.9,4540,4525.64,4283.08,3904.1,4219.49,4616.41,4402.05,4677.95,1691,1711,6.129,0,0,0,0,
54,4120,4178.46,4087.69,3842.05,4321.03,4132.82,4539.49,4523.08,4276.41,3902.05,4211.28,4604.62,4392.82,4655.38,1692,1710,6.137,0,0,0,0,
55,4107.69,4170.26,4081.54,3830.77,4330.77,4129.74,4544.1,4526.67,4274.36,3897.44,4212.82,4600,4389.23,4643.59,1692,1710,6.145,0,0,0,0,
56,4108.72,4181.54,4092.31,3829.23,4356.92,4136.41,4545.13,4527.69,4275.9,3904.1,4218.46,4608.21,4396.41,4648.72,1693,1708,6.153,0,0,0,0,
57,4092.31,4179.49,4083.59,3838.46,4347.69,4143.08,4542.05,4529.23,4278.97,3906.15,4207.18,4604.1,4390.26,4638.97,1693,1709,6.161,0,0,0,0,
58,4076.92,4177.44,4064.62,3848.72,4342.56,4140,4541.54,4533.85,4282.05,3904.62,4201.03,4594.36,4384.1,4624.1,1692,1710,6.168,0,0,0,0,
59,4086.15,4188.72,4072.82,3853.85,4364.62,4137.95,4542.56,4529.23,4273.33,3911.28,4215.9,4601.03,4395.9,4630.26,1693,1710,6.176,0,0,0,0,
60,4086.67,4178.46,4082.05,3842.56,4355.38,4137.44,4541.54,4521.54,4264.62,3906.67,4219.49,4602.05,4396.41,4627.69,1691,1712,6.184,0,0,0,0,
61,4066.67,4155.9,4069.23,3832.82,4330.77,4134.87,4541.03,4522.56,4271.79,3894.36,4204.1,4588.72,4385.13,4605.64,1692,1712,6.192,0,0,0,0,
62,4060,4154.87,4064.62,3834.87,4343.08,4137.44,4542.05,4526.67,4276.92,3896.92,4201.03,4585.64,4383.59,4601.54,1690,1713,6.2,0,0,0,0,
63,4062.05,4151.79,4067.69,3826.67,4352.31,4137.44,4542.05,4523.59,4272.31,3896.41,4206.15,4589.23,4381.54,4608.21,1691,1712,6.208,0,0,0,0,
64,4053.85,4140.51,4062.56,3819.49,4336.92,4136.92,4540,4523.08,4274.87,3896.92,4199.49,4585.13,4380.51,4604.62,1690,1711,6.216,0,0,0,0,
65,4049.74,4148.72,4057.44,3829.74,4339.49,4135.9,4539.49,4528.72,4285.13,3909.74,4198.46,4581.54,4385.13,4603.08,1690,1711,6.223,0,0,0,0,
66,4052.31,4154.36,4059.49,3838.46,4354.87,4136.92,4545.64,4533.33,4290.26,3912.31,4206.67,4586.15,4386.67,4609.23,1689,1710,6.232,0,0,0,0,
67,4048.72,4134.87,4061.54,3830.26,4354.87,4148.21,4555.38,4534.36,4288.72,3906.67,4206.67,4586.15,4381.54,4604.62,1690,1710,6.239,0,0,0,0,
68,4040,4125.64,4055.38,3819.49,4343.59,4154.87,4554.36,4531.79,4281.03,3904.62,4200,4576.41,4373.85,4588.21,1690,1709,6.247,0,0,0,0,
69,4033.33,4136.41,4049.23,3815.38,4341.03,4143.08,4544.1,4526.67,4275.9,3901.54,4194.36,4569.23,4370.26,4580,1691,1709,6.254,0,0,0,0,
70,4031.28,4143.59,4049.23,3822.05,4343.08,4132.31,4536.41,4517.95,4272.82,3898.97,4191.79,4569.74,4373.33,4581.54,1691,1710,6.262,0,0,0,0,
71,4039.49,4148.72,4058.46,3830.26,4336.92,4136.92,4535.9,4518.46,4273.85,3906.15,4202.05,4580,4380,4588.21,1692,1710,6.271,0,0,0,0,
72,4057.44,4154.87,4070.77,3835.38,4345.13,4141.54,4541.03,4533.33,4287.18,3918.97,4217.95,4590.77,4391.28,4602.56,1691,1709,6.278,0,0,0,0,
73,4064.1,4160,4077.95,3847.69,4368.72,4138.97,4548.72,4543.08,4298.97,3928.72,4221.54,4597.44,4402.05,4615.38,1692,1709,6.286,0,0,0,0,
74,4055.9,4158.97,4076.41,3844.62,4363.08,4140.51,4554.36,4542.56,4296.41,3929.74,4217.95,4600,4404.1,4613.85,1691,1709,6.294,0,0,0,0,
75,4051.79,4145.13,4069.74,3830.26,4338.97,4140,4554.36,4540.51,4293.85,3925.64,4218.97,4595.9,4398.46,4604.1,1692,1709,6.301,0,0,0,0,
76,4051.28,4133.85,4066.15,3839.49,4344.1,4137.44,4553.85,4540.51,4296.41,3925.64,4215.9,4586.15,4389.74,4596.92,1691,1708,6.309,0,0,0,0,
77,4048.21,4140,4066.67,3845.64,4357.95,4144.62,4556.92,4540.51,4292.82,3921.54,4207.69,4586.67,4383.59,4589.74,1691,1709,6.317,0,0,0,0,
78,4043.59,4140.51,4065.13,3827.69,4352.82,4149.74,4557.95,4540,4282.05,3910.26,4201.03,4587.18,4378.97,4585.64,1689,1707,6.325,0,0,0,0,
79,4036.92,4130.77,4055.38,3820.51,4341.03,4141.03,4555.38,4534.36,4280.51,3905.13,4198.97,4573.85,4373.85,4584.62,1688,1710,6.333,0,0,0,0,
80,4033.85,4134.87,4051.28,3831.79,4341.54,4135.38,4553.85,4527.18,4290.26,3910.77,4201.03,4571.28,4373.85,4584.62,1689,1710,6.341,0,0,0,0,
81,4038.46,4150.77,4055.9,3836.92,4351.28,4141.03,4550.26,4523.08,4288.21,3916.41,4200.51,4583.59,4379.49,4588.21,1687,1711,6.348,0,0,0,0,
82,4048.21,4156.41,4062.56,3833.33,4353.33,4141.03,4545.64,4522.05,4277.95,3918.46,4203.59,4584.62,4386.67,4594.87,1689,1712,6.356,0,0,0,0,
83,4053.33,4151.79,4067.18,3831.28,4349.74,4137.44,4546.67,4528.21,4284.1,3924.62,4214.36,4585.64,4393.85,4601.54,1689,1711,6.364,0,0,0,0,
84,4048.21,4151.79,4063.59,3836.92,4356.41,4137.95,4543.59,4528.21,4291.28,3925.64,4216.41,4589.23,4395.38,4601.03,1690,1711,6.372,0,0,0,0,
85,4042.05,4153.85,4056.92,3837.44,4358.97,4135.38,4537.95,4522.56,4281.54,3911.28,4203.59,4578.46,4382.05,4591.79,1691,1711,6.38,0,0,0,0,
86,4043.59,4153.85,4059.49,3831.79,4357.95,4138.46,4546.15,4530.26,4281.54,3905.64,4200.51,4573.33,4374.87,4584.1,1693,1711,6.387,0,0,0,0,
87,4043.59,4146.15,4062.56,3832.82,4355.38,4140.51,4553.85,4540,4296.41,3919.49,4204.1,4583.08,4378.97,4582.56,1693,1709,6.396,0,0,0,0,
88,4036.92,4140.51,4060,3835.38,4349.74,4136.92,4553.85,4542.56,4301.54,3927.18,4202.56,4585.13,4379.49,4587.69,1692,1710,6.403,0,0,0,0,
89,4040.51,4149.74,4066.67,3831.28,4356.92,4145.13,4565.13,4550.26,4303.08,3927.18,4211.79,4589.23,4383.08,4598.97,1694,1709,6.411,0,0,0,0,
90,4049.23,4153.33,4073.85,3832.31,4362.05,4153.33,4576.41,4550.26,4303.59,3929.74,4218.97,4595.9,4387.69,4598.46,1692,1709,6.419,0,0,0,0,
91,4042.05,4138.46,4063.08,3834.87,4348.72,4144.62,4569.23,4535.9,4292.31,3923.59,4205.13,4583.08,4383.08,4585.13,1693,1707,6.427,0,0,0,0,
92,4033.33,4137.44,4051.79,3831.28,4342.05,4135.38,4557.95,4532.31,4286.15,3913.85,4195.9,4568.21,4378.97,4582.56,1690,1707,6.434,0,0,0,0,
93,4037.44,4152.82,4054.36,3834.87,4357.44,4142.56,4554.87,4539.49,4299.49,3917.95,4207.18,4576.41,4386.15,4586.15,1692,1709,6.442,0,0,0,0,
94,4044.1,4159.49,4063.59,3844.62,4373.33,4152.82,4554.87,4540.51,4305.64,3929.23,4216.92,4587.18,4395.38,4588.21,1691,1710,6.45,0,0,0,0,
95,4049.23,4154.87,4068.72,3846.15,4370.26,4151.79,4553.85,4535.9,4288.72,3929.23,4215.38,4587.69,4395.9,4596.41,1690,1709,6.458,0,0,0,0,
96,4050.77,4149.23,4067.18,3837.95,4354.36,4140.51,4551.79,4534.87,4279.49,3924.1,4213.33,4586.67,4391.28,4599.49,1691,1707,6.466,0,0,0,0,
97,4049.23,4152.31,4065.13,3831.28,4355.38,4140.51,4552.31,4538.46,4293.85,3925.13,4215.9,4588.21,4388.72,4594.36,1690,1708,6.473,0,0,0,0,
98,4049.23,4159.49,4067.18,3833.33,4365.64,4151.28,4554.87,4538.97,4298.46,3927.69,4215.9,4587.69,4388.21,4597.44,1691,1709,6.481,0,0,0,0,
99,4051.28,4155.38,4069.23,3840.51,4363.59,4144.1,4555.38,4537.44,4289.74,3924.62,4213.33,4586.67,4389.23,4597.95,1691,1710,6.489,0,0,0,0,
100,4048.21,4151.79,4067.18,3848.72,4374.36,4135.9,4553.33,4533.33,4290.77,3924.62,4212.82,4588.72,4392.82,4589.74,1692,1710,6.497,0,0,0,0,
101,4046.67,4163.08,4066.67,3847.18,4384.62,4148.21,4551.79,4527.18,4286.67,3926.15,4211.28,4588.21,4391.79,4588.21,1691,1711,6.505,0,0,0,0,
102,4051.28,4169.23,4069.74,3835.9,4372.82,4156.41,4558.97,4530.77,4283.59,3925.13,4209.74,4586.15,4387.18,4588.21,1693,1711,6.513,0,0,0,0,
103,4048.72,4165.13,4068.72,3831.28,4370.26,4150.26,4568.21,4538.97,4293.33,3926.15,4212.82,4583.59,4386.15,4585.13,1692,1710,6.521,0,0,0,0,
104,4046.15,4167.69,4065.13,3834.36,4378.46,4150.26,4569.23,4538.97,4296.41,3926.15,4214.36,4585.13,4388.72,4592.31,1692,1710,6.528,0,0,0,0,
105,4049.74,4172.82,4065.64,3836.92,4372.82,4154.87,4565.13,4540,4301.54,3924.62,4213.85,4591.28,4392.82,4604.1,1690,1708,6.536,0,0,0,0,
106,4048.72,4168.21,4068.21,3833.85,4363.59,4153.33,4560.51,4545.13,4314.36,3932.82,4215.38,4595.38,4394.36,4600.51,1690,1710,6.544,0,0,0,0,
107,4049.23,4170.26,4070.77,3835.38,4372.31,4151.28,4560,4543.08,4306.67,3943.08,4217.44,4597.44,4398.46,4597.95,1690,1708,6.552,0,0,0,0,
108,4060,4185.64,4078.46,3848.21,4385.64,4151.28,4563.08,4539.49,4293.33,3942.56,4223.59,4601.54,4408.21,4606.67,1689,1709,6.56,0,0,0,0,
109,4067.18,4187.18,4084.1,3851.28,4389.74,4153.33,4560.51,4542.05,4295.9,3936.41,4230.77,4605.13,4411.79,4608.21,1690,1710,6.567,0,0,0,0,
110,4058.97,4171.28,4078.97,3838.46,4375.38,4149.23,4553.85,4537.44,4289.23,3926.67,4222.05,4599.49,4398.46,4599.49,1690,1710,6.576,0,0,0,0,
111,4048.72,4164.1,4071.79,3829.74,4353.33,4139.49,4553.85,4523.08,4272.31,3912.82,4203.59,4589.23,4384.1,4587.69,1691,1709,6.59,0,0,0,0,
112,4046.15,4164.62,4069.23,3829.74,4356.41,4134.87,4553.33,4520.51,4272.31,3906.67,4201.54,4583.08,4383.08,4581.03,1691,1710,6.591,0,0,0,0,
113,4050.77,4165.64,4072.31,3830.26,4384.1,4143.59,4556.92,4534.87,4285.64,3912.31,4213.85,4585.64,4390.77,4589.74,1691,1709,6.599,0,0,0,0,
114,4057.44,4176.92,4075.38,3837.44,4394.87,4155.9,4568.21,4540.51,4294.87,3921.03,4217.44,4595.9,4396.41,4601.54,1692,1710,6.606,0,0,0,0,
115,4057.95,4182.56,4072.31,3844.1,4375.38,4154.87,4567.69,4535.9,4300,3927.69,4213.85,4597.44,4395.38,4598.97,1692,1710,6.614,0,0,0,0,
116,4065.13,4183.08,4077.95,3848.21,4378.46,4151.79,4569.23,4548.72,4310.77,3934.36,4224.62,4602.56,4400.51,4603.08,1693,1707,6.627,0,0,0,0,
117,4087.18,4195.9,4097.95,3861.03,4406.15,4162.56,4586.15,4571.79,4323.59,3945.64,4244.62,4621.03,4413.85,4621.54,1692,1708,6.63,0,0,0,0,
118,4096.92,4205.64,4104.62,3866.67,4409.23,4174.36,4592.82,4574.36,4321.54,3945.64,4245.13,4627.69,4418.97,4625.13,1692,1706,6.638,0,0,0,0,
119,4083.59,4199.49,4092.82,3853.85,4393.85,4170.26,4583.59,4558.97,4302.56,3930.77,4232.31,4617.44,4411.79,4616.92,1692,1707,6.646,0,0,0,0,
120,4077.44,4192.31,4089.74,3846.67,4397.44,4164.62,4578.97,4551.28,4290.77,3923.08,4229.74,4613.33,4402.56,4615.38,1692,1707,6.653,0,0,0,0,
121,4087.69,4186.15,4100.51,3852.31,4398.97,4170.77,4581.54,4554.87,4296.92,3926.67,4232.31,4618.97,4403.08,4617.95,1691,1710,6.661,0,0,0,0,
122,4092.82,4183.59,4106.15,3851.79,4380,4170.26,4579.49,4556.41,4306.67,3932.82,4233.85,4621.54,4410.77,4622.56,1692,1710,6.669,0,0,0,0,
123,4090.77,4192.31,4107.18,3848.21,4376.41,4156.92,4580,4553.33,4307.18,3938.97,4239.49,4624.1,4411.79,4629.74,1691,1711,6.677,0,0,0,0,
124,4090.26,4196.92,4107.18,3851.28,4392.31,4153.85,4583.59,4556.41,4310.26,3942.56,4244.62,4627.69,4411.28,4630.77,1691,1710,6.685,0,0,0,0,
125,4096.92,4201.03,4105.13,3860,4406.15,4166.15,4585.64,4565.64,4318.97,3947.18,4248.21,4630.26,4422.56,4634.36,1691,1710,6.692,0,0,0,0,
126,4106.67,4213.85,4110.26,3866.15,4411.28,4171.28,4586.67,4569.23,4325.13,3955.38,4251.79,4634.36,4432.31,4645.13,1692,1708,6.701,0,0,0,0,
127,4108.21,4218.97,4116.41,3866.15,4407.69,4169.74,4587.69,4568.72,4334.36,3961.54,4251.28,4634.87,4429.74,4647.69,1691,1708,6.711,0,0,0,0,
128,4104.1,4213.33,4111.28,3862.56,4401.54,4170.77,4588.21,4568.21,4334.36,3955.9,4249.23,4632.31,4425.13,4641.03,1691,1706,6.716,0,0,0,0,
0,4106.67,4215.38,4110.77,3863.59,4405.64,4174.87,4588.21,4562.05,4316.41,3946.67,4250.77,4634.87,4428.21,4642.56,1691,1706,6.724,0,0,0,0,
1,4111.28,4216.41,4117.95,3865.13,4404.1,4170.26,4586.15,4556.41,4304.62,3941.54,4250.26,4640,4427.18,4647.69,1691,1706,6.732,0,0,0,0,
2,4101.03,4205.13,4112.31,3850.26,4386.67,4158.46,4580,4553.85,4307.18,3940,4247.18,4633.85,4416.92,4637.95,1690,1709,6.744,0,0,0,0,
3,4092.31,4200.51,4102.56,3844.62,4398.46,4158.97,4578.97,4553.85,4310.77,3940.51,4245.64,4625.64,4415.9,4632.31,1691,1709,6.747,0,0,0,0,
4,4100,4197.44,4108.72,3860,4417.44,4166.67,4581.54,4555.38,4310.26,3943.08,4246.67,4631.28,4425.64,4639.49,1690,1710,6.755,0,0,0,0,
5,4101.54,4194.36,4109.74,3860,4406.15,4164.62,4576.41,4554.87,4305.64,3945.64,4248.21,4632.31,4428.21,4640.51,1691,1712,6.763,0,0,0,0,
6,4090.77,4199.49,4098.46,3843.59,4395.38,4161.03,4572.82,4549.23,4300,3941.03,4244.62,4621.54,4417.44,4629.74,1691,1710,6.771,0,0,0,0,
7,4090.26,4206.15,4095.9,3843.08,4400,4169.74,4581.54,4549.23,4308.21,3940.51,4243.08,4615.38,4413.33,4625.13,1690,1711,6.779,0,0,0,0,
8,4092.31,4202.05,4097.44,3848.72,4392.82,4170.77,4586.67,4555.38,4322.05,3947.18,4244.1,4616.92,4416.41,4626.67,1690,1710,6.786,0,0,0,0,
9,4082.56,4196.92,4089.74,3846.67,4383.08,4155.38,4573.85,4554.87,4318.46,3947.69,4240,4615.38,4414.36,4623.59,1690,1710,6.794,0,0,0,0,
10,4081.03,4201.54,4091.28,3845.64,4394.36,4154.87,4569.74,4552.31,4309.23,3941.54,4237.95,4616.92,4412.82,4623.08,1690,1709,6.802,0,0,0,0,
11,4090.26,4201.03,4103.59,3844.1,4399.49,4168.21,4577.95,4552.31,4307.18,3937.95,4239.49,4618.97,4410.77,4622.56,1689,1708,6.818,0,0,0,0,
12,4093.85,4201.03,4107.18,3852.82,4392.31,4165.13,4577.44,4551.28,4309.74,3941.03,4242.05,4620,4410.77,4627.18,1690,1707,6.819,0,0,0,0,
13,4093.33,4209.23,4104.62,3863.59,4396.92,4157.95,4576.41,4555.38,4313.85,3945.13,4248.21,4626.67,4417.95,4634.87,1689,1706,6.826,0,0,0,0,
14,4092.82,4207.69,4103.08,3853.85,4405.13,4168.72,4584.62,4560,4311.28,3941.54,4247.18,4628.21,4417.95,4629.23,1690,1706,6.833,0,0,0,0,
15,4086.15,4190.77,4099.49,3840.51,4398.97,4170.26,4586.67,4556.92,4307.18,3934.87,4235.38,4621.03,4405.13,4616.92,1689,1706,6.842,0,0,0,0,
16,4078.46,4182.05,4096.41,3843.08,4390.26,4160.51,4584.1,4560.51,4316.41,3942.05,4235.9,4618.97,4403.59,4614.36,1690,1708,6.849,0,0,0,0,
17,4081.03,4186.67,4097.95,3849.74,4399.49,4166.67,4587.18,4569.23,4323.08,3951.28,4245.64,4622.56,4414.36,4617.95,1690,1708,6.857,0,0,0,0,
18,4084.62,4191.79,4095.9,3850.77,4403.08,4168.72,4586.67,4562.05,4315.38,3946.67,4246.67,4619.49,4413.33,4618.46,1689,1711,6.865,0,0,0,0,
