COUNTER,AF3,F7,F3, FC5, T7, P7, O1, O2,P8, T8, FC6, F4,F8, AF4,GYROX, GYROY, TIMESTAMP, FUNC_ID, FUNC_VALUE, MARKER, SYNC_SIGNAL,
89,4431.79,4024.62,4350.77,4171.28,4135.38,3572.82,4445.64,4439.49,4750.26,4507.69,4539.49,4314.87,4308.72,3809.74,1656,1690,0.123,0,0,0,0,
90,4441.54,4028.72,4358.46,4175.9,4160.51,3565.13,4449.74,4445.13,4752.82,4510.77,4546.15,4323.08,4313.85,3820,1656,1691,0.131,0,0,0,0,
91,4428.72,4009.74,4350.77,4153.33,4138.97,3552.82,4436.92,4430.77,4747.18,4501.54,4534.36,4315.38,4305.64,3808.72,1657,1691,0.138,0,0,0,0,
92,4429.23,4010.26,4345.13,4150.77,4117.95,3555.9,4433.85,4429.74,4749.74,4504.1,4538.97,4320,4311.28,3807.18,1655,1693,0.146,0,0,0,0,
93,4447.18,4042.05,4359.49,4178.46,4152.82,3572.31,4452.31,4452.31,4767.18,4533.85,4561.03,4341.54,4335.9,3830.77,1657,1694,0.154,0,0,0,0,
94,4450.77,4044.1,4366.67,4185.64,4174.87,3581.03,4464.1,4463.59,4773.85,4540.51,4561.54,4342.56,4336.41,3835.38,1656,1693,0.162,0,0,0,0,
95,4442.56,4020,4353.33,4171.28,4152.82,3574.87,4457.95,4459.49,4765.64,4512.82,4546.67,4327.69,4314.87,3820,1657,1693,0.17,0,0,0,0,
96,4437.95,4018.46,4344.62,4165.64,4142.05,3571.79,4455.38,4451.79,4761.54,4502.56,4543.08,4323.08,4310.77,3816.92,1656,1691,0.178,0,0,0,0,
97,4427.18,4011.28,4344.62,4156.41,4136.41,3572.82,4458.46,4445.13,4764.1,4510.77,4542.56,4316.41,4310.77,3811.79,1656,1691,0.185,0,0,0,0,
98,4420.51,3998.46,4340,4150.77,4126.15,3570.77,4454.87,4444.1,4762.05,4511.79,4536.41,4307.69,4304.1,3801.54,1656,1689,0.193,0,0,0,0,
99,4433.85,4020.51,4342.05,4163.59,4139.49,3569.74,4451.28,4447.69,4756.41,4517.95,4542.05,4317.44,4313.85,3809.74,1655,1689,0.201,0,0,0,0,
100,4438.97,4029.23,4349.74,4160,4143.59,3570.26,4446.15,4443.59,4750.26,4521.54,4550.77,4323.08,4324.1,3818.97,1655,1689,0.209,0,0,0,0,
101,4432.31,4007.18,4350.77,4149.23,4134.87,3570.26,4442.56,4440.51,4747.18,4510.77,4552.31,4318.46,4320.51,3817.95,1655,1689,0.217,0,0,0,0,
102,4439.49,4017.44,4353.85,4175.9,4149.23,3572.82,4449.74,4451.79,4748.72,4508.21,4554.36,4329.23,4325.64,3831.28,1655,1690,0.224,0,0,0,0,
103,4451.28,4039.49,4358.46,4195.38,4152.31,3573.85,4451.79,4454.36,4747.18,4509.74,4555.38,4336.41,4329.23,3838.97,1654,1692,0.232,0,0,0,0,
104,4446.15,4024.1,4356.92,4169.74,4132.31,3571.79,4442.56,4443.08,4742.56,4502.05,4549.23,4323.08,4317.44,3821.54,1654,1693,0.24,0,0,0,0,
105,4441.03,4018.97,4359.49,4167.69,4137.44,3571.79,4447.18,4448.21,4746.67,4508.21,4549.74,4321.54,4321.03,3820.51,1654,1696,0.248,0,0,0,0,
106,4450.77,4038.97,4366.67,4189.23,4157.44,3572.82,4460.51,4461.03,4755.9,4521.03,4556.92,4331.79,4335.38,3836.41,1654,1698,0.256,0,0,0,0,
107,4454.36,4036.41,4365.13,4176.41,4149.74,3574.36,4457.95,4447.18,4749.23,4511.28,4550.26,4325.64,4326.67,3831.79,1654,1702,0.264,0,0,0,0,
108,4459.49,4028.72,4366.15,4166.67,4145.13,3583.59,4456.41,4436.41,4744.1,4503.08,4552.82,4324.62,4322.56,3829.23,1654,1702,0.271,0,0,0,0,
109,4460.51,4031.28,4365.64,4178.46,4136.92,3585.13,4459.49,4447.18,4751.79,4512.31,4562.05,4331.28,4327.18,3834.36,1654,1705,0.279,0,0,0,0,
110,4431.28,4013.85,4342.05,4164.1,4107.69,3572.82,4449.74,4443.08,4741.54,4495.9,4532.82,4306.15,4299.49,3805.13,1654,1704,0.287,0,0,0,0,
111,4416.92,3996.41,4335.9,4143.59,4112.82,3574.36,4444.1,4432.82,4726.15,4481.54,4511.79,4288.21,4283.08,3785.13,1653,1705,0.295,0,0,0,0,
112,4446.67,4017.95,4364.1,4167.69,4153.85,3588.72,4458.97,4451.28,4747.69,4518.46,4554.87,4320,4325.64,3826.67,1654,1703,0.303,0,0,0,0,
113,4469.23,4035.9,4378.46,4192.82,4163.59,3590.77,4471.79,4476.41,4780,4550.26,4596.41,4349.23,4365.64,3867.18,1652,1702,0.311,0,0,0,0,
114,4455.38,4014.87,4367.18,4171.79,4144.1,3587.18,4468.21,4481.03,4787.69,4543.59,4590.26,4345.64,4364.62,3866.15,1653,1703,0.318,0,0,0,0,
115,4443.08,3996.92,4361.03,4147.69,4133.85,3586.15,4461.03,4471.28,4772.31,4533.85,4575.38,4339.49,4357.44,3861.03,1654,1701,0.326,0,0,0,0,
116,4444.62,4004.62,4361.54,4157.95,4129.74,3582.05,4456.92,4460,4751.79,4528.21,4572.31,4337.95,4358.97,3865.64,1653,1701,0.334,0,0,0,0,
117,4450.77,4010.26,4357.95,4173.33,4135.38,3584.62,4457.95,4457.44,4751.28,4524.1,4575.9,4336.92,4357.95,3865.13,1654,1701,0.342,0,0,0,0,
118,4454.36,4003.59,4356.92,4165.13,4138.97,3589.74,4461.54,4460.51,4764.62,4529.23,4580.51,4337.95,4353.85,3866.15,1656,1700,0.35,0,0,0,0,
119,4447.18,4002.05,4358.97,4158.46,4117.95,3582.56,4460,4457.44,4757.95,4528.21,4572.82,4332.82,4346.67,3862.56,1657,1700,0.357,0,0,0,0,
120,4436.92,4002.05,4352.82,4161.54,4105.64,3578.97,4456.41,4450.77,4742.05,4512.82,4564.62,4324.62,4340.51,3849.74,1658,1701,0.365,0,0,0,0,
121,4436.41,3994.36,4345.64,4154.36,4123.08,3587.18,4456.92,4451.79,4746.15,4508.21,4567.18,4325.64,4341.03,3849.23,1659,1699,0.373,0,0,0,0,
122,4440.51,3997.44,4354.36,4154.87,4144.1,3588.72,4458.46,4461.03,4756.92,4515.9,4568.21,4332.31,4345.13,3862.56,1659,1700,0.381,0,0,0,0,
123,4448.72,4010.77,4368.21,4169.74,4145.13,3587.69,4460,4474.36,4766.15,4526.67,4573.33,4345.13,4355.9,3870.77,1661,1699,0.389,0,0,0,0,
124,4449.74,4006.67,4363.59,4158.97,4127.18,3585.64,4460.51,4474.87,4771.28,4527.18,4575.38,4345.13,4354.36,3865.64,1659,1699,0.397,0,0,0,0,
125,4444.62,3998.97,4352.31,4144.62,4117.44,3580.51,4452.82,4459.49,4755.9,4515.38,4567.18,4328.21,4338.97,3860,1658,1698,0.404,0,0,0,0,
126,4450.26,4013.85,4357.44,4170.77,4127.69,3583.59,4452.82,4455.9,4751.28,4515.9,4566.67,4328.72,4342.05,3866.15,1657,1696,0.412,0,0,0,0,
127,4454.87,4018.97,4362.05,4183.08,4129.23,3589.23,4461.03,4464.1,4764.1,4526.15,4573.33,4335.9,4353.85,3865.64,1655,1698,0.42,0,0,0,0,
128,4445.13,4003.08,4348.21,4161.03,4115.9,3585.64,4459.49,4459.49,4756.41,4527.18,4569.74,4324.62,4346.67,3854.36,1655,1696,0.428,0,0,0,0,
0,4437.44,4003.59,4337.95,4158.97,4123.59,3592.31,4455.38,4452.82,4747.69,4518.46,4563.08,4320,4339.49,3852.82,1654,1695,0.436,0,0,0,0,
1,4446.15,4023.59,4351.28,4178.97,4157.44,3605.64,4463.08,4461.54,4765.13,4526.15,4569.74,4334.36,4354.87,3866.15,1654,1695,0.443,0,0,0,0,
2,4450.26,4022.56,4358.46,4174.87,4162.56,3601.54,4464.1,4463.08,4770.77,4538.46,4573.33,4333.85,4360,3865.64,1654,1695,0.451,0,0,0,0,
3,4437.95,4000,4340.51,4151.28,4132.82,3588.21,4447.69,4446.15,4746.15,4525.13,4562.56,4314.36,4341.03,3847.69,1654,1694,0.459,0,0,0,0,
4,4435.9,4003.59,4335.38,4153.85,4127.69,3578.97,4437.95,4440.51,4740.51,4513.85,4561.54,4318.97,4338.46,3849.74,1653,1695,0.467,0,0,0,0,
5,4451.28,4020.51,4357.44,4171.28,4145.13,3572.82,4443.08,4454.36,4753.85,4527.69,4575.38,4341.03,4361.54,3874.87,1654,1695,0.475,0,0,0,0,
6,4463.59,4017.44,4368.21,4167.69,4139.49,3572.31,4446.67,4460,4756.41,4541.03,4585.13,4346.67,4372.31,3883.08,1654,1693,0.483,0,0,0,0,
7,4457.44,4008.21,4357.44,4156.41,4120.51,3574.87,4443.59,4455.9,4750.26,4533.85,4581.54,4342.56,4361.54,3868.72,1655,1694,0.49,0,0,0,0,
8,4447.18,4008.21,4350.26,4159.49,4118.46,3575.9,4444.1,4458.46,4749.23,4527.18,4575.38,4343.59,4356.41,3861.54,1655,1694,0.498,0,0,0,0,
9,4442.56,4010.26,4351.28,4162.56,4123.08,3576.41,4444.62,4458.97,4749.74,4523.59,4571.28,4337.44,4358.46,3865.13,1654,1695,0.506,0,0,0,0,
10,4441.54,4013.85,4350.77,4161.54,4127.69,3576.41,4441.54,4454.87,4747.18,4517.44,4571.79,4333.85,4356.41,3862.56,1656,1695,0.514,0,0,0,0,
11,4446.15,4016.92,4351.79,4165.13,4134.36,3578.97,4445.13,4456.92,4749.23,4523.08,4574.87,4342.56,4356.92,3862.56,1654,1696,0.522,0,0,0,0,
12,4450.26,4011.28,4352.31,4162.56,4134.36,3587.18,4449.23,4460,4750.26,4521.03,4570.77,4338.97,4354.87,3864.1,1655,1695,0.529,0,0,0,0,
13,4438.46,4001.03,4344.1,4148.21,4120,3586.15,4446.15,4454.87,4748.21,4505.64,4555.38,4321.54,4338.46,3850.26,1654,1694,0.537,0,0,0,0,
14,4422.05,3996.92,4336.92,4141.03,4113.33,3577.44,4443.08,4455.9,4755.9,4511.79,4548.21,4319.49,4331.28,3837.95,1654,1694,0.545,0,0,0,0,
15,4431.79,4002.05,4346.15,4146.67,4118.97,3575.38,4445.13,4461.54,4761.54,4531.28,4563.08,4331.79,4345.64,3851.28,1654,1694,0.553,0,0,0,0,
16,4442.05,4001.54,4351.79,4138.97,4111.79,3574.36,4442.56,4451.79,4748.72,4524.1,4570.26,4330.77,4353.85,3858.97,1655,1694,0.561,0,0,0,0,
17,4436.41,3996.92,4343.59,4132.82,4114.87,3575.38,4440.51,4446.15,4743.59,4521.03,4567.18,4324.62,4355.38,3855.38,1655,1694,0.569,0,0,0,0,
18,4446.67,4014.36,4352.31,4158.97,4144.1,3585.13,4451.28,4458.46,4763.59,4546.15,4578.46,4336.92,4370.77,3869.23,1655,1695,0.576,0,0,0,0,
19,4458.97,4025.13,4368.72,4176.92,4143.59,3591.79,4460.51,4465.13,4772.31,4547.18,4582.56,4346.15,4375.9,3877.44,1656,1694,0.584,0,0,0,0,
20,4445.64,4010.26,4357.95,4158.46,4122.05,3585.64,4454.87,4458.97,4755.38,4527.18,4571.79,4333.33,4361.54,3866.15,1655,1696,0.592,0,0,0,0,
21,4437.95,4002.56,4345.13,4148.72,4122.56,3576.41,4446.67,4457.44,4748.72,4524.1,4570.26,4324.62,4355.9,3859.49,1656,1696,0.6,0,0,0,0,
22,4445.64,4005.13,4348.72,4153.33,4112.82,3572.31,4443.59,4448.72,4751.79,4515.38,4564.1,4323.59,4355.38,3853.33,1654,1696,0.608,0,0,0,0,
23,4444.62,4006.67,4351.79,4151.28,4105.13,3570.77,4442.05,4438.46,4741.54,4501.54,4555.9,4321.03,4351.79,3849.23,1655,1697,0.615,0,0,0,0,
24,4444.1,4016.92,4352.82,4158.46,4125.64,3573.33,4443.59,4447.18,4737.95,4514.36,4567.69,4329.23,4355.38,3862.56,1654,1698,0.623,0,0,0,0,
25,4451.28,4020.51,4355.9,4165.64,4133.85,3578.46,4445.13,4455.38,4749.23,4527.18,4573.33,4335.9,4357.44,3868.72,1654,1699,0.631,0,0,0,0,
26,4455.9,4014.87,4362.05,4154.87,4131.28,3584.1,4446.67,4452.82,4752.31,4517.44,4563.59,4333.33,4356.41,3860.51,1653,1698,0.639,0,0,0,0,
27,4456.92,4018.46,4366.15,4152.31,4138.97,3588.72,4450.26,4454.87,4750.26,4516.92,4566.67,4337.44,4361.54,3866.67,1653,1698,0.647,0,0,0,0,
28,4458.97,4025.13,4362.56,4166.67,4143.59,3589.74,4451.28,4460,4754.36,4524.62,4572.82,4344.62,4363.08,3878.97,1653,1698,0.655,0,0,0,0,
29,4460,4021.03,4361.03,4164.1,4136.92,3580.51,4442.56,4455.9,4748.72,4520,4567.69,4343.08,4356.92,3878.46,1654,1699,0.662,0,0,0,0,
30,4458.97,4013.33,4366.15,4149.23,4123.08,3570.26,4440.51,4453.85,4747.18,4521.54,4571.79,4342.56,4359.49,3874.36,1653,1700,0.67,0,0,0,0,
31,4466.67,4020.51,4373.33,4162.05,4119.49,3579.49,4454.87,4462.56,4765.13,4533.33,4587.18,4353.33,4371.28,3883.59,1653,1699,0.678,0,0,0,0,
32,4476.41,4032.31,4372.31,4181.54,4136.92,3586.15,4462.56,4467.69,4775.9,4533.85,4593.33,4360,4379.49,3894.36,1653,1699,0.686,0,0,0,0,
33,4465.64,4021.03,4358.46,4163.08,4131.79,3570.26,4448.72,4457.44,4762.05,4521.03,4579.49,4349.74,4372.31,3886.67,1654,1699,0.694,0,0,0,0,
34,4447.18,4001.54,4349.23,4137.95,4111.28,3571.79,4440.51,4450.26,4751.79,4514.36,4569.23,4336.92,4360.51,3871.79,1653,1700,0.701,0,0,0,0,
35,4450.26,4005.64,4356.41,4147.69,4126.15,3590.77,4448.72,4458.46,4760,4517.95,4570.77,4337.95,4359.49,3868.72,1654,1701,0.709,0,0,0,0,
36,4451.28,4009.23,4357.44,4160,4135.9,3582.05,4446.67,4454.36,4755.38,4513.33,4562.05,4335.38,4356.92,3865.64,1653,1701,0.717,0,0,0,0,
37,4442.56,4001.54,4352.82,4154.36,4117.44,3569.74,4443.59,4443.08,4745.13,4502.05,4564.62,4331.79,4356.41,3861.03,1654,1700,0.725,0,0,0,0,
38,4452.82,4006.67,4363.08,4153.85,4120.51,3584.1,4455.9,4452.82,4758.97,4509.23,4588.21,4346.15,4366.67,3865.13,1655,1698,0.733,0,0,0,0,
39,4458.46,4003.08,4366.67,4153.33,4128.72,3593.33,4462.56,4465.13,4770.77,4525.13,4578.46,4347.18,4361.54,3857.44,1655,1698,0.741,0,0,0,0,
40,4447.69,3991.79,4357.95,4146.67,4112.82,3584.1,4456.92,4459.49,4763.08,4516.41,4547.18,4330.77,4347.18,3843.08,1657,1697,0.748,0,0,0,0,
41,4452.82,4003.59,4364.1,4152.31,4115.9,3585.64,4457.95,4458.97,4763.59,4504.1,4557.44,4336.92,4353.85,3849.23,1656,1696,0.756,0,0,0,0,
42,4462.56,4009.74,4370.26,4165.13,4128.72,3589.74,4456.41,4459.49,4766.15,4509.23,4570.77,4345.13,4357.44,3856.41,1657,1698,0.764,0,0,0,0,
43,4447.69,3996.41,4358.46,4157.44,4118.46,3584.62,4444.1,4445.64,4751.79,4502.56,4553.85,4328.72,4343.59,3845.13,1657,1698,0.772,0,0,0,0,
44,4437.44,3998.97,4354.87,4140.51,4112.82,3585.64,4444.62,4444.1,4743.59,4489.74,4551.79,4324.1,4343.59,3839.49,1656,1699,0.78,0,0,0,0,
45,4449.74,4010.26,4365.64,4151.28,4124.62,3590.77,4457.95,4458.97,4754.36,4504.62,4570.77,4338.97,4357.44,3849.74,1655,1699,0.788,0,0,0,0,
46,4451.79,4007.18,4363.08,4169.74,4125.13,3588.21,4461.54,4462.05,4767.18,4515.38,4568.72,4338.46,4360,3850.26,1656,1700,0.795,0,0,0,0,
47,4446.15,4007.69,4353.33,4163.59,4113.85,3583.59,4456.41,4457.44,4767.69,4506.67,4557.44,4332.82,4356.92,3845.13,1655,1700,0.803,0,0,0,0,
48,4446.67,4007.18,4354.87,4150.77,4107.18,3584.62,4454.87,4458.97,4762.56,4517.95,4561.03,4334.36,4353.33,3847.18,1654,1701,0.811,0,0,0,0,
49,4445.64,3996.92,4358.46,4147.69,4106.15,3588.21,4455.9,4460.51,4765.13,4526.67,4561.03,4330.26,4345.64,3841.54,1655,1700,0.819,0,0,0,0,
50,4441.54,3996.41,4356.41,4145.64,4106.67,3588.72,4456.41,4460,4770.26,4508.21,4551.28,4322.56,4337.95,3830.26,1653,1701,0.827,0,0,0,0,
51,4441.54,4002.56,4354.87,4142.56,4104.1,3587.69,4457.44,4456.41,4762.56,4496.41,4552.82,4324.1,4338.97,3835.38,1654,1700,0.834,0,0,0,0,
52,4451.28,4005.64,4361.03,4142.56,4107.69,3589.23,4461.54,4456.41,4758.46,4504.1,4566.67,4334.87,4349.74,3848.21,1652,1700,0.842,0,0,0,0,
53,4455.9,4002.56,4369.23,4138.97,4119.49,3590.77,4464.1,4465.64,4766.67,4514.36,4570.77,4341.54,4355.38,3853.85,1654,1701,0.85,0,0,0,0,
54,4455.9,4006.15,4375.9,4151.28,4123.08,3590.26,4460.51,4472.82,4775.38,4523.08,4575.38,4345.13,4357.95,3859.49,1654,1701,0.858,0,0,0,0,
55,4467.18,4026.15,4382.05,4175.9,4128.72,3590.77,4460.51,4474.87,4777.95,4530.77,4586.15,4354.87,4369.23,3869.74,1655,1702,0.866,0,0,0,0,
56,4468.21,4025.64,4376.92,4163.08,4126.67,3589.23,4462.05,4470.77,4771.79,4522.05,4578.46,4353.85,4366.15,3866.15,1656,1702,0.874,0,0,0,0,
57,4448.72,4003.08,4363.59,4134.36,4103.59,3584.62,4457.95,4463.08,4762.05,4512.31,4564.62,4335.38,4345.64,3850.26,1657,1702,0.881,0,0,0,0,
58,4443.59,3998.46,4363.59,4138.97,4097.95,3584.1,4457.95,4458.46,4759.49,4515.38,4563.59,4328.72,4344.62,3844.1,1657,1701,0.889,0,0,0,0,
59,4458.46,4006.67,4368.72,4147.69,4111.79,3585.64,4457.44,4457.95,4763.08,4511.28,4566.15,4335.9,4355.38,3848.21,1658,1702,0.897,0,0,0,0,
60,4456.92,4006.15,4365.13,4138.97,4103.08,3585.13,4456.41,4463.59,4771.79,4505.64,4570.77,4340,4353.85,3852.82,1658,1701,0.905,0,0,0,0,
61,4456.92,4011.28,4371.79,4150.26,4098.97,3589.74,4469.74,4475.38,4783.08,4514.87,4582.56,4349.23,4360.51,3866.67,1657,1702,0.913,0,0,0,0,
62,4473.33,4022.56,4387.69,4175.9,4123.59,3594.36,4476.41,4480.51,4783.08,4527.69,4589.23,4362.05,4377.44,3881.54,1657,1701,0.92,0,0,0,0,
63,4468.21,4023.59,4380.51,4170.77,4126.67,3589.74,4461.54,4475.9,4778.46,4532.82,4585.64,4358.97,4374.36,3874.36,1656,1701,0.928,0,0,0,0,
64,4448.72,4015.9,4361.54,4149.23,4098.97,3586.15,4454.36,4473.33,4778.97,4534.36,4576.41,4346.67,4358.46,3860,1656,1702,0.936,0,0,0,0,
65,4450.77,4008.72,4365.13,4147.18,4092.31,3587.69,4460,4472.31,4771.79,4527.18,4570.26,4344.1,4355.38,3862.05,1655,1702,0.944,0,0,0,0,
66,4465.64,4017.95,4381.03,4155.38,4116.41,3587.69,4461.03,4470.26,4764.62,4522.05,4573.33,4351.79,4362.56,3865.64,1656,1703,0.952,0,0,0,0,
67,4460,4023.59,4375.38,4148.72,4122.05,3586.15,4455.9,4465.64,4766.67,4524.62,4573.33,4352.31,4365.64,3862.56,1657,1701,0.96,0,0,0,0,
68,4447.69,4006.15,4364.1,4137.44,4097.95,3585.64,4452.31,4457.95,4763.08,4512.82,4570.77,4342.56,4359.49,3861.03,1655,1703,0.967,0,0,0,0,
69,4450.77,4001.54,4367.18,4146.67,4094.87,3588.21,4452.82,4458.97,4761.03,4505.64,4571.28,4342.05,4353.85,3861.03,1656,1703,0.975,0,0,0,0,
70,4460,4023.59,4370.26,4164.1,4117.44,3593.33,4458.97,4470.77,4767.69,4511.79,4570.77,4350.77,4356.92,3863.08,1656,1702,0.983,0,0,0,0,
71,4461.03,4022.05,4370.77,4156.41,4113.85,3591.28,4459.49,4472.82,4765.13,4512.82,4568.72,4351.28,4362.56,3865.64,1655,1700,0.991,0,0,0,0,
72,4458.46,4000.51,4373.85,4138.97,4090.77,3583.59,4456.92,4467.69,4765.13,4514.36,4568.72,4346.67,4361.54,3861.54,1654,1699,0.999,0,0,0,0,
73,4464.1,4011.79,4377.44,4152.31,4103.59,3588.21,4461.03,4472.82,4776.41,4526.67,4578.46,4353.85,4365.64,3868.21,1655,1697,1.006,0,0,0,0,
74,4467.69,4035.38,4376.41,4161.54,4126.15,3590.26,4463.59,4474.36,4774.36,4542.05,4589.74,4362.56,4373.33,3880.51,1653,1696,1.014,0,0,0,0,
75,4461.03,4024.1,4372.82,4137.44,4105.64,3576.41,4454.36,4458.46,4755.9,4534.87,4579.49,4350.77,4364.1,3870.77,1653,1697,1.022,0,0,0,0,
76,4461.03,4013.33,4373.85,4137.44,4094.87,3576.92,4450.26,4450.26,4748.21,4515.38,4564.1,4341.03,4353.85,3859.49,1654,1696,1.03,0,0,0,0,
77,4464.62,4021.03,4373.33,4163.08,4119.49,3586.67,4453.33,4451.28,4748.72,4503.08,4567.18,4346.15,4354.87,3865.64,1652,1697,1.038,0,0,0,0,
78,4460,4017.44,4367.18,4156.92,4113.33,3579.49,4451.28,4444.62,4746.15,4502.56,4570.26,4345.64,4354.36,3866.15,1654,1698,1.046,0,0,0,0,
79,4457.95,4016.41,4366.67,4147.69,4091.28,3578.97,4454.36,4448.72,4748.21,4514.36,4563.59,4339.49,4356.41,3860,1654,1699,1.053,0,0,0,0,
80,4462.05,4028.72,4369.74,4157.44,4110.26,3590.26,4458.97,4458.46,4747.69,4514.36,4567.18,4344.1,4364.1,3864.62,1654,1698,1.061,0,0,0,0,
81,4454.87,4023.59,4358.46,4138.46,4122.05,3586.15,4450.26,4449.23,4741.03,4492.82,4572.31,4345.13,4354.36,3863.59,1654,1698,1.069,0,0,0,0,
82,4448.72,4012.82,4351.79,4116.92,4102.05,3582.05,4446.15,4443.08,4741.03,4494.87,4568.21,4335.9,4344.62,3854.36,1655,1698,1.077,0,0,0,0,
83,4463.08,4021.54,4367.69,4137.95,4103.08,3588.21,4458.97,4456.92,4750.26,4529.23,4567.18,4344.1,4360,3863.08,1654,1697,1.085,0,0,0,0,
84,4474.36,4025.64,4376.92,4162.56,4110.77,3586.67,4463.59,4467.18,4764.62,4530.77,4570.77,4359.49,4369.74,3876.92,1655,1695,1.092,0,0,0,0,
85,4465.64,4018.46,4369.23,4161.54,4098.97,3588.72,4460.51,4464.62,4770.77,4511.79,4573.85,4357.95,4360.51,3873.85,1655,1696,1.1,0,0,0,0,
86,4453.85,4016.92,4360.51,4137.95,4097.95,3589.23,4458.97,4460,4757.44,4516.41,4570.26,4347.69,4354.36,3860.51,1655,1695,1.108,0,0,0,0,
87,4461.03,4022.05,4368.72,4121.54,4113.85,3581.54,4458.46,4459.49,4749.23,4525.64,4566.67,4348.72,4360.51,3864.62,1654,1696,1.116,0,0,0,0,
88,4472.82,4019.49,4383.59,4133.33,4113.33,3580,4457.95,4459.49,4752.31,4524.1,4568.72,4355.38,4365.13,3876.92,1655,1696,1.125,0,0,0,0,
89,4464.1,4018.46,4374.87,4153.33,4104.1,3581.03,4457.44,4458.46,4742.56,4513.85,4572.82,4350.26,4356.92,3870.77,1654,1697,1.132,0,0,0,0,
90,4458.46,4027.69,4362.56,4150.26,4107.69,3576.41,4460.51,4459.49,4731.79,4503.59,4572.31,4345.13,4350.26,3863.08,1655,1697,1.139,0,0,0,0,
91,4456.41,4007.69,4367.69,4111.28,4091.28,3573.33,4454.36,4449.74,4727.18,4488.21,4557.44,4337.44,4343.08,3854.87,1655,1699,1.147,0,0,0,0,
92,4446.15,3989.74,4366.67,4100,4070.26,3580.51,4447.18,4440.51,4729.23,4478.97,4546.67,4332.31,4337.95,3849.23,1657,1698,1.155,0,0,0,0,
93,4456.41,4019.49,4366.15,4143.59,4098.97,3590.26,4457.44,4460,4748.21,4501.54,4561.54,4351.28,4354.36,3866.67,1657,1699,1.163,0,0,0,0,
94,4473.85,4034.87,4376.41,4156.92,4126.15,3590.26,4465.13,4476.41,4758.97,4525.64,4574.87,4366.15,4370.77,3881.54,1658,1698,1.171,0,0,0,0,
95,4465.13,4014.87,4377.95,4134.87,4115.38,3585.13,4462.05,4470.77,4754.36,4523.59,4571.79,4357.95,4367.18,3875.38,1658,1696,1.232,0,0,0,0,
96,4460.51,4014.36,4371.28,4139.49,4108.72,3591.79,4472.31,4478.46,4764.1,4522.56,4575.38,4358.46,4366.15,3872.82,1657,1695,1.235,0,0,0,0,
97,4463.59,4013.85,4366.15,4133.33,4094.36,3592.82,4474.87,4483.08,4777.44,4527.69,4573.33,4356.92,4360,3871.28,1657,1694,1.235,0,0,0,0,
98,4446.67,3995.9,4357.44,4116.41,4070.77,3577.95,4456.92,4465.64,4761.54,4519.49,4557.95,4338.46,4341.03,3857.44,1656,1694,1.235,0,0,0,0,
99,4452.31,4013.33,4364.62,4149.23,4092.31,3576.41,4456.41,4467.18,4750.77,4516.92,4569.74,4345.13,4351.79,3865.13,1655,1695,1.235,0,0,0,0,
100,4475.9,4039.49,4383.08,4157.95,4113.85,3579.49,4465.64,4475.9,4752.31,4525.13,4589.23,4368.72,4373.85,3885.13,1654,1696,1.235,0,0,0,0,
101,4469.23,4025.64,4381.03,4132.31,4092.31,3572.82,4460,4463.08,4740.51,4527.18,4576.41,4362.56,4365.13,3877.95,1654,1695,1.235,0,0,0,0,
102,4456.41,4007.69,4368.72,4146.15,4091.28,3573.85,4455.38,4453.85,4735.9,4517.95,4561.54,4346.15,4352.31,3864.1,1654,1696,1.235,0,0,0,0,
103,4460,4013.33,4366.15,4164.62,4106.15,3578.97,4459.49,4457.44,4747.18,4503.59,4566.15,4342.56,4352.31,3863.59,1655,1695,1.241,0,0,0,0,
104,4466.15,4025.64,4372.31,4149.23,4098.46,3576.92,4467.69,4466.15,4750.77,4502.05,4569.23,4345.13,4351.28,3868.21,1655,1694,1.249,0,0,0,0,
105,4462.05,4022.05,4375.38,4124.62,4087.69,3574.87,4471.79,4472.82,4741.54,4506.67,4562.05,4345.13,4350.26,3860.51,1656,1696,1.257,0,0,0,0,
106,4448.21,4000,4367.18,4110.77,4076.92,3572.31,4463.59,4463.08,4734.36,4505.13,4551.28,4334.87,4343.59,3845.64,1658,1695,1.264,0,0,0,0,
107,4445.13,3992.31,4363.08,4129.74,4073.85,3568.72,4453.85,4452.82,4730.77,4503.08,4548.21,4330.26,4335.9,3847.69,1658,1696,1.272,0,0,0,0,
108,4457.44,4010.26,4367.18,4165.64,4097.95,3575.9,4456.41,4462.56,4741.03,4504.1,4562.05,4343.59,4345.13,3860.51,1659,1696,1.28,0,0,0,0,
109,4465.13,4028.72,4372.82,4155.9,4117.44,3587.18,4471.28,4480,4765.64,4516.41,4574.36,4358.97,4363.59,3868.21,1658,1696,1.288,0,0,0,0,
110,4458.46,4017.95,4372.31,4126.67,4095.38,3587.18,4474.36,4479.49,4761.54,4520,4572.31,4354.36,4360.51,3867.18,1658,1698,1.296,0,0,0,0,
111,4445.64,3994.87,4359.49,4124.62,4071.28,3576.41,4461.03,4462.05,4738.46,4494.87,4566.15,4341.03,4342.05,3860,1657,1697,1.304,0,0,0,0,
112,4448.72,4004.62,4361.54,4147.18,4085.64,3572.31,4463.59,4468.21,4748.21,4505.13,4572.82,4348.72,4352.82,3866.15,1657,1697,1.311,0,0,0,0,
113,4464.62,4022.56,4381.54,4148.72,4092.31,3572.82,4473.85,4488.72,4770.26,4550.77,4582.05,4366.67,4377.95,3883.08,1655,1695,1.319,0,0,0,0,
114,4463.08,4017.44,4380,4128.72,4083.59,3572.82,4466.67,4485.13,4771.28,4550.26,4575.9,4363.59,4372.31,3885.64,1655,1695,1.327,0,0,0,0,
115,4450.77,4005.64,4365.64,4129.74,4092.31,3571.79,4460.51,4474.36,4761.54,4522.05,4566.67,4348.72,4353.85,3870.26,1653,1693,1.335,0,0,0,0,
116,4457.44,4006.15,4372.31,4149.23,4098.97,3571.28,4464.1,4473.85,4745.64,4515.38,4565.13,4345.64,4352.31,3863.08,1653,1693,1.343,0,0,0,0,
117,4466.15,4005.64,4376.41,4155.38,4081.03,3573.33,4461.03,4466.15,4733.33,4505.13,4564.62,4346.67,4353.33,3866.67,1654,1692,1.351,0,0,0,0,
118,4452.82,3988.72,4360.51,4140,4059.49,3567.18,4451.28,4453.85,4732.31,4483.08,4549.23,4335.9,4339.49,3857.44,1653,1693,1.358,0,0,0,0,
119,4443.08,3983.08,4357.95,4140.51,4073.33,3561.54,4450.77,4456.41,4734.36,4486.15,4536.41,4329.74,4336.41,3846.67,1654,1692,1.366,0,0,0,0,
120,4453.33,4008.72,4366.67,4152.31,4112.31,3577.44,4465.64,4468.21,4745.64,4508.72,4552.82,4345.13,4354.87,3860.51,1654,1694,1.374,0,0,0,0,
121,4463.08,4021.54,4372.31,4140,4122.05,3591.28,4478.97,4484.62,4764.1,4524.62,4581.54,4366.15,4372.82,3883.08,1656,1695,1.382,0,0,0,0,
122,4460,4000,4380,4122.05,4086.15,3576.92,4475.9,4495.9,4768.21,4529.23,4587.69,4369.74,4371.79,3883.08,1657,1696,1.39,0,0,0,0,
123,4464.1,3997.95,4378.46,4143.59,4076.92,3568.72,4473.33,4489.23,4764.62,4539.49,4578.97,4366.15,4376.41,3881.54,1658,1696,1.397,0,0,0,0,
124,4465.13,4002.56,4362.05,4164.1,4089.74,3570.77,4471.28,4477.95,4759.49,4543.59,4578.46,4359.49,4383.59,3884.62,1659,1696,1.405,0,0,0,0,
125,4446.15,3977.95,4346.67,4130.77,4061.54,3555.38,4457.44,4473.33,4747.18,4515.38,4569.74,4342.56,4366.15,3869.23,1658,1695,1.413,0,0,0,0,
126,4439.49,3984.1,4343.59,4122.05,4060,3552.31,4458.97,4475.38,4752.82,4501.54,4566.15,4342.05,4358.46,3865.64,1658,1693,1.421,0,0,0,0,
127,4460.51,4012.31,4354.87,4157.95,4111.28,3572.31,4476.92,4476.92,4770.77,4525.13,4582.05,4361.54,4378.46,3884.1,1657,1692,1.429,0,0,0,0,
128,4468.21,4005.13,4363.59,4152.82,4106.15,3575.9,4473.33,4474.87,4767.69,4530.77,4580.51,4364.62,4376.41,3886.15,1656,1689,1.437,0,0,0,0,
0,4457.44,4003.59,4356.41,4129.23,4068.72,3570.26,4459.49,4471.79,4754.87,4516.92,4568.72,4353.85,4358.46,3876.41,1653,1690,1.444,0,0,0,0,
1,4462.56,4010.77,4359.49,4143.08,4088.21,3569.23,4460.51,4468.72,4746.67,4520,4569.74,4356.41,4360.51,3882.05,1654,1689,1.452,0,0,0,0,
2,4466.67,3980.51,4363.08,4148.21,4089.74,3563.08,4454.87,4455.38,4728.72,4511.79,4561.54,4350.26,4357.44,3876.41,1652,1691,1.46,0,0,0,0,
3,4452.31,3984.62,4345.13,4146.15,4071.28,3563.08,4446.67,4446.67,4718.97,4485.64,4550.77,4336.92,4348.21,3861.54,1653,1693,1.468,0,0,0,0,
4,4457.44,4033.85,4347.18,4173.85,4108.21,3573.33,4464.1,4464.1,4738.46,4496.41,4567.18,4351.28,4362.05,3874.87,1653,1693,1.476,0,0,0,0,
5,4472.82,4027.18,4364.1,4172.82,4127.69,3570.77,4476.41,4481.03,4755.38,4529.23,4574.36,4364.62,4370.77,3887.18,1653,1694,1.483,0,0,0,0,
6,4462.05,3998.46,4349.23,4131.28,4090.77,3558.97,4461.54,4474.87,4749.74,4526.15,4563.59,4346.67,4356.92,3870.77,1653,1694,1.491,0,0,0,0,
7,4453.33,4001.54,4346.67,4123.08,4083.59,3554.87,4453.85,4468.72,4745.64,4503.59,4565.13,4336.92,4353.33,3861.03,1653,1695,1.499,0,0,0,0,
8,4461.03,3998.97,4360.51,4141.54,4101.03,3557.44,4461.54,4475.9,4749.23,4505.64,4562.05,4345.13,4359.49,3866.15,1654,1695,1.507,0,0,0,0,
9,4461.03,3996.92,4348.72,4150.77,4080.51,3565.13,4465.13,4475.38,4744.1,4512.82,4554.36,4345.13,4358.97,3866.67,1654,1696,1.515,0,0,0,0,
10,4462.05,4006.67,4347.69,4158.46,4072.31,3571.79,4470.77,4472.82,4746.67,4510.77,4566.15,4347.18,4365.13,3872.82,1655,1695,1.523,0,0,0,0,
11,4464.1,4003.59,4364.1,4146.15,4096.41,3570.77,4476.41,4482.05,4764.1,4514.87,4570.77,4352.82,4369.74,3878.97,1656,1694,1.53,0,0,0,0,
12,4459.49,4006.67,4360.51,4136.92,4116.41,3572.31,4475.38,4488.72,4767.69,4525.64,4570.26,4355.9,4365.64,3876.92,1656,1692,1.538,0,0,0,0,
13,4456.92,4009.23,4351.79,4155.38,4119.49,3573.33,4474.36,4485.64,4754.36,4518.97,4583.08,4358.46,4365.13,3875.9,1655,1690,1.546,0,0,0,0,
14,4460.51,4003.59,4356.92,4169.23,4107.18,3570.77,4473.85,4484.1,4755.9,4506.15,4581.03,4356.92,4367.18,3877.44,1654,1689,1.554,0,0,0,0,
15,4470.77,4003.59,4365.64,4148.72,4092.82,3572.31,4473.85,4489.74,4768.21,4515.9,4565.64,4354.87,4368.72,3880,1655,1689,1.562,0,0,0,0,
16,4477.95,3975.38,4375.38,4105.64,4071.79,3570.77,4473.33,4484.62,4758.46,4522.56,4564.62,4354.87,4364.1,3881.03,1654,1688,1.569,0,0,0,0,
17,4470.26,3960,4372.82,4104.62,4068.21,3564.62,4470.77,4475.9,4745.64,4514.87,4570.77,4352.31,4359.49,3876.92,1654,1690,1.577,0,0,0,0,
18,4457.44,4004.62,4354.36,4157.95,4091.79,3568.21,4471.28,4477.44,4748.21,4518.46,4571.79,4349.74,4364.1,3874.87,1655,1689,1.585,0,0,0,0,
19,4459.49,4026.67,4353.33,4172.82,4107.69,3573.33,4473.33,4476.41,4744.62,4520.51,4570.26,4349.74,4366.15,3877.44,1654,1691,1.593,0,0,0,0,
20,4470.26,3991.28,4363.59,4137.95,4101.54,3569.74,4473.33,4471.79,4738.46,4505.13,4568.72,4350.77,4356.41,3878.46,1656,1691,1.601,0,0,0,0,
21,4478.97,3965.13,4366.67,4140,4092.82,3572.82,4475.38,4475.9,4748.72,4504.1,4569.23,4352.31,4352.31,3876.92,1654,1692,1.609,0,0,0,0,
22,4467.18,3987.69,4359.49,4154.87,4087.69,3574.36,4476.92,4481.54,4759.49,4513.85,4567.69,4348.21,4352.82,3871.28,1657,1693,1.616,0,0,0,0,
23,4444.1,4016.41,4345.13,4121.03,4070.77,3561.54,4471.28,4474.87,4753.85,4501.54,4565.13,4337.44,4346.67,3861.54,1656,1692,1.624,0,0,0,0,
24,4447.69,4011.28,4350.26,4111.28,4069.23,3557.95,4472.82,4478.46,4755.38,4508.21,4568.72,4340,4351.28,3861.54,1656,1693,1.632,0,0,0,0,
25,4463.08,3984.62,4367.69,4141.03,4078.46,3562.56,4475.38,4488.21,4764.1,4529.74,4563.59,4347.69,4357.95,3865.64,1657,1692,1.64,0,0,0,0,
26,4462.05,3967.69,4359.49,4144.62,4066.67,3554.36,4461.03,4475.9,4751.28,4511.28,4548.72,4336.92,4344.1,3859.49,1657,1692,1.648,0,0,0,0,
27,4449.74,3979.49,4338.97,4138.46,4064.1,3553.85,4452.31,4465.13,4742.56,4495.38,4554.87,4330.26,4338.97,3856.92,1655,1692,1.656,0,0,0,0,
28,4448.72,4008.21,4346.67,4149.74,4085.64,3570.26,4469.23,4476.92,4755.38,4523.08,4569.74,4343.59,4356.92,3864.1,1655,1692,1.663,0,0,0,0,
29,4460,4021.03,4362.05,4166.67,4101.54,3576.41,4476.92,4481.54,4759.49,4530.77,4572.82,4354.36,4369.74,3869.23,1655,1691,1.671,0,0,0,0,
30,4454.87,4005.64,4357.44,4169.23,4095.9,3570.77,4465.13,4473.33,4750.26,4507.69,4576.41,4354.36,4366.15,3874.36,1654,1693,1.679,0,0,0,0,
31,4441.54,3997.44,4356.92,4160,4088.21,3571.79,4467.69,4475.38,4752.82,4511.28,4577.95,4352.31,4362.56,3875.9,1655,1693,1.687,0,0,0,0,
32,4447.69,4007.18,4356.41,4145.13,4090.77,3577.44,4478.46,4480,4755.9,4530.77,4568.72,4345.13,4359.49,3865.13,1653,1692,1.695,0,0,0,0,
33,4458.46,4002.05,4354.36,4123.08,4089.23,3574.36,4471.79,4475.9,4747.69,4523.59,4565.13,4338.97,4353.85,3858.46,1655,1693,1.702,0,0,0,0,
34,4445.64,3977.95,4359.49,4123.08,4076.41,3559.49,4458.97,4471.28,4741.03,4503.59,4569.23,4338.46,4347.69,3862.05,1655,1691,1.71,0,0,0,0,
35,4438.46,3970.26,4361.03,4151.79,4082.56,3554.36,4455.9,4469.23,4741.03,4506.15,4569.23,4338.46,4347.18,3859.49,1655,1692,1.718,0,0,0,0,
36,4455.9,4005.13,4360,4179.49,4109.74,3571.28,4460,4474.87,4750.26,4526.15,4570.26,4344.62,4360,3867.69,1657,1691,1.726,0,0,0,0,
37,4463.08,4037.44,4360,4167.69,4108.21,3573.85,4461.03,4473.33,4751.79,4527.18,4568.72,4348.21,4367.18,3877.95,1655,1693,1.734,0,0,0,0,
38,4450.26,4024.1,4357.44,4137.44,4089.74,3556.41,4456.41,4462.05,4736.92,4507.69,4566.15,4340,4358.46,3870.26,1656,1693,1.742,0,0,0,0,
39,4453.33,4017.95,4360,4144.1,4093.33,3564.1,4458.97,4470.26,4737.95,4502.05,4576.92,4340.51,4361.03,3870.77,1656,1693,1.749,0,0,0,0,
40,4469.23,4027.69,4369.23,4153.85,4081.54,3578.97,4466.15,4476.92,4748.21,4505.64,4574.87,4346.15,4365.13,3875.9,1656,1692,1.757,0,0,0,0,
41,4454.36,4003.08,4361.03,4131.79,4063.08,3565.64,4464.1,4464.1,4747.69,4502.56,4552.82,4335.9,4351.79,3863.59,1654,1692,1.765,0,0,0,0,
42,4433.85,3991.28,4348.21,4136.41,4080,3555.9,4460,4463.08,4749.23,4511.28,4554.36,4332.31,4348.72,3860,1656,1690,1.773,0,0,0,0,
43,4449.23,4020,4358.97,4153.85,4086.15,3560,4460.51,4475.9,4749.23,4521.54,4578.46,4342.05,4364.62,3876.92,1653,1690,1.781,0,0,0,0,
44,4466.15,4031.79,4370.77,4136.92,4066.67,3556.92,4458.46,4475.38,4741.03,4523.59,4577.44,4346.67,4372.82,3880.51,1654,1692,1.788,0,0,0,0,
45,4461.03,4029.23,4367.18,4144.1,4086.15,3560,4457.95,4475.38,4748.72,4537.44,4568.21,4349.74,4373.33,3876.41,1653,1691,1.796,0,0,0,0,
46,4462.56,4041.03,4363.59,4175.9,4117.44,3567.69,4462.05,4478.97,4755.9,4543.08,4579.49,4352.31,4373.33,3883.59,1652,1693,1.804,0,0,0,0,
47,4462.56,4029.74,4361.54,4163.08,4098.46,3557.44,4457.95,4464.62,4731.79,4511.28,4582.05,4343.59,4363.08,3878.46,1653,1693,1.812,0,0,0,0,
48,4446.67,4010.26,4355.38,4144.62,4081.03,3553.33,4450.77,4455.38,4721.54,4492.82,4566.67,4337.95,4354.36,3864.1,1652,1694,1.82,0,0,0,0,
49,4447.18,4022.05,4356.92,4146.67,4093.85,3562.56,4455.9,4460,4735.38,4508.72,4561.54,4342.05,4356.92,3861.54,1654,1693,1.828,0,0,0,0,
50,4461.54,4017.44,4370.26,4140.51,4092.82,3560,4463.08,4458.46,4732.82,4507.69,4566.15,4344.1,4352.82,3868.72,1654,1694,1.835,0,0,0,0,
51,4462.05,4007.18,4376.41,4150.26,4090.26,3560.51,4462.56,4463.08,4735.38,4503.59,4570.77,4349.74,4354.36,3876.92,1655,1693,1.843,0,0,0,0,
52,4456.92,4034.87,4368.72,4170.77,4103.59,3571.79,4461.54,4472.82,4750.77,4525.13,4577.44,4355.9,4368.72,3879.49,1655,1694,1.851,0,0,0,0,
53,4456.41,4051.28,4365.64,4164.1,4102.05,3573.33,4462.56,4473.33,4749.74,4530.26,4582.56,4352.31,4373.85,3878.97,1656,1693,1.859,0,0,0,0,
54,4458.46,4031.79,4369.23,4141.54,4084.1,3569.74,4462.56,4466.67,4740,4513.33,4582.05,4348.21,4366.15,3874.87,1655,1692,1.867,0,0,0,0,
55,4457.44,4017.95,4366.67,4131.79,4078.97,3564.1,4462.05,4462.05,4742.05,4515.38,4578.46,4349.23,4358.46,3868.21,1656,1692,1.874,0,0,0,0,
56,4460,4027.18,4367.18,4162.05,4085.64,3557.44,4462.05,4466.15,4747.69,4528.72,4572.82,4351.28,4359.49,3870.26,1656,1690,1.882,0,0,0,0,
57,4468.72,4027.69,4378.97,4177.95,4087.69,3561.03,4462.56,4471.28,4743.08,4524.1,4567.69,4354.87,4362.56,3878.46,1654,1691,1.89,0,0,0,0,
58,4476.41,4021.54,4385.64,4141.54,4093.33,3571.79,4462.05,4471.28,4738.97,4513.33,4576.41,4358.46,4364.62,3878.46,1655,1690,1.898,0,0,0,0,
59,4478.46,4021.03,4384.1,4139.49,4097.95,3577.95,4462.56,4473.85,4744.62,4524.1,4585.13,4361.03,4365.64,3880,1653,1692,1.906,0,0,0,0,
60,4472.31,4016.41,4382.05,4169.23,4084.1,3574.36,4462.56,4474.87,4743.08,4530.26,4576.41,4360,4360.51,3882.56,1653,1694,1.914,0,0,0,0,
61,4462.05,4022.05,4376.92,4159.49,4083.59,3562.56,4460.51,4464.1,4733.33,4500.51,4566.67,4354.36,4350.77,3872.31,1653,1694,1.921,0,0,0,0,
62,4456.92,4024.62,4369.74,4150.26,4109.74,3557.44,4458.46,4456.92,4730.77,4483.59,4565.13,4346.67,4344.1,3860.51,1653,1694,1.929,0,0,0,0,
63,4458.97,4012.31,4368.72,4163.08,4112.31,3569.74,4461.03,4464.1,4736.41,4514.36,4566.15,4344.1,4348.72,3864.62,1653,1694,1.937,0,0,0,0,
64,4457.95,4011.28,4374.36,4147.18,4092.31,3574.87,4462.05,4464.1,4734.87,4530.77,4568.72,4344.62,4353.85,3868.21,1653,1693,1.945,0,0,0,0,
65,4444.1,4015.9,4367.18,4126.15,4080,3557.95,4455.38,4457.44,4731.79,4498.97,4562.05,4335.38,4341.54,3857.95,1654,1690,1.953,0,0,0,0,
66,4437.44,4004.62,4354.87,4143.59,4078.46,3550.77,4452.82,4457.44,4737.44,4482.56,4549.23,4323.08,4330.77,3847.18,1655,1688,1.96,0,0,0,0,
67,4450.77,4013.33,4364.1,4165.64,4093.33,3567.18,4458.46,4459.49,4747.18,4499.49,4555.9,4327.18,4341.54,3854.36,1656,1689,1.968,0,0,0,0,
68,4468.21,4018.97,4382.56,4164.1,4106.67,3575.38,4461.54,4463.08,4750.77,4513.85,4571.79,4343.59,4353.33,3872.82,1657,1689,1.976,0,0,0,0,
69,4466.15,3997.44,4384.62,4143.59,4090.77,3562.05,4457.95,4470.26,4747.69,4520.51,4569.23,4349.74,4353.85,3879.49,1656,1690,1.984,0,0,0,0,
70,4456.92,4019.49,4378.97,4132.82,4086.67,3558.46,4455.38,4473.85,4748.72,4523.08,4570.77,4347.69,4359.49,3875.38,1657,1689,1.992,0,0,0,0,
71,4472.31,4050.77,4384.1,4163.59,4109.23,3570.77,4459.49,4472.31,4749.74,4514.87,4585.13,4354.36,4366.67,3877.44,1655,1691,2,0,0,0,0,
72,4481.03,4018.97,4384.62,4180,4105.13,3574.87,4462.56,4471.79,4742.56,4502.05,4583.08,4355.38,4357.44,3878.97,1656,1691,2.007,0,0,0,0,
73,4454.36,3996.92,4373.33,4146.67,4085.13,3570.26,4462.05,4471.28,4734.36,4492.82,4571.28,4346.15,4347.18,3870.26,1655,1691,2.015,0,0,0,0,
74,4443.08,4008.72,4370.77,4130.26,4078.97,3567.69,4458.97,4466.15,4735.9,4488.72,4574.36,4341.03,4349.74,3861.03,1656,1693,2.023,0,0,0,0,
75,4457.95,4002.05,4377.95,4151.28,4078.46,3568.72,4459.49,4461.54,4746.67,4496.41,4571.28,4341.54,4349.74,3861.54,1656,1690,2.031,0,0,0,0,
76,4451.28,3997.44,4371.28,4158.97,4090.26,3572.31,4460,4458.97,4748.21,4510.26,4551.79,4335.9,4340.51,3861.54,1655,1691,2.039,0,0,0,0,
77,4434.87,4022.56,4357.44,4157.95,4108.72,3573.33,4461.03,4463.08,4749.23,4511.28,4553.33,4335.38,4339.49,3861.54,1656,1689,2.046,0,0,0,0,
78,4443.08,4025.64,4362.56,4163.08,4102.56,3573.33,4468.21,4472.82,4759.49,4505.64,4574.36,4346.67,4351.28,3866.67,1655,1689,2.054,0,0,0,0,
79,4447.18,4004.1,4374.87,4153.85,4086.67,3574.36,4474.36,4474.87,4756.41,4515.9,4576.92,4352.31,4354.36,3866.15,1655,1688,2.062,0,0,0,0,
80,4442.56,4010.26,4374.87,4154.87,4091.28,3574.87,4471.79,4473.33,4750.26,4527.18,4570.26,4349.23,4353.85,3864.1,1655,1688,2.07,0,0,0,0,
81,4447.69,4025.13,4371.79,4166.67,4093.85,3574.87,4465.13,4472.82,4755.38,4512.82,4571.28,4346.15,4357.44,3866.67,1655,1689,2.078,0,0,0,0,
82,4449.74,4001.54,4370.77,4148.72,4080.51,3569.23,4457.95,4460.51,4741.54,4491.79,4572.82,4343.59,4353.33,3867.18,1655,1691,2.086,0,0,0,0,
83,4445.13,3992.82,4369.74,4141.03,4078.97,3561.03,4452.82,4446.67,4719.49,4487.69,4570.77,4341.03,4347.18,3862.05,1655,1693,2.092,0,0,0,0,
84,4437.95,4018.46,4372.82,4151.79,4078.46,3558.46,4450.26,4449.74,4724.1,4487.18,4560.51,4337.95,4341.54,3858.46,1654,1693,2.1,0,0,0,0,
85,4442.56,4008.72,4383.08,4150.77,4080,3562.05,4451.79,4452.82,4734.36,4485.13,4553.85,4336.41,4338.46,3861.54,1655,1694,2.109,0,0,0,0,
86,4457.95,3990.26,4386.15,4160,4093.85,3570.26,4456.41,4449.23,4729.74,4488.21,4566.67,4340,4346.15,3864.1,1655,1693,2.117,0,0,0,0,
87,4449.74,4029.74,4372.82,4181.54,4089.74,3572.31,4456.92,4456.41,4731.28,4497.44,4575.38,4338.97,4352.82,3858.46,1655,1694,2.125,0,0,0,0,
88,4431.28,4051.28,4370.26,4172.82,4070.26,3562.56,4452.82,4461.03,4736.92,4494.87,4560,4328.21,4343.08,3854.87,1657,1693,2.132,0,0,0,0,
89,4439.49,4012.82,4382.56,4142.56,4076.41,3556.41,4448.72,4447.18,4732.82,4477.44,4548.21,4324.62,4330.77,3857.95,1655,1694,2.14,0,0,0,0,
90,4449.74,3997.44,4382.56,4136.41,4090.77,3560.51,4444.62,4446.67,4735.38,4478.97,4561.03,4335.38,4337.44,3861.54,1657,1694,2.148,0,0,0,0,
91,4439.49,4004.62,4373.85,4158.46,4075.38,3560.51,4445.13,4457.95,4741.54,4494.36,4568.21,4338.46,4348.21,3862.56,1657,1692,2.156,0,0,0,0,
92,4434.36,3998.97,4370.77,4181.54,4065.64,3561.54,4453.33,4456.41,4741.03,4485.64,4558.46,4329.74,4346.15,3863.59,1657,1692,2.164,0,0,0,0,
93,4443.59,4003.08,4371.79,4179.49,4076.92,3564.1,4453.33,4446.67,4740.51,4474.36,4555.9,4330.77,4337.95,3864.62,1657,1693,2.172,0,0,0,0,
94,4446.67,4006.67,4379.49,4165.13,4074.36,3561.03,4446.15,4445.64,4742.56,4486.15,4566.15,4336.41,4336.92,3862.56,1656,1691,2.179,0,0,0,0,
95,4432.82,4020,4380,4164.62,4077.95,3568.72,4455.9,4454.87,4745.13,4501.54,4572.31,4335.38,4345.13,3861.54,1655,1691,2.186,0,0,0,0,
96,4428.72,4037.44,4375.38,4160,4093.33,3580,4466.67,4461.54,4748.72,4507.69,4570.26,4333.85,4350.77,3862.05,1655,1692,2.194,0,0,0,0,
97,4449.23,4006.15,4389.74,4141.03,4084.62,3569.74,4458.46,4457.44,4748.72,4504.1,4567.18,4336.92,4347.18,3861.54,1656,1692,2.203,0,0,0,0,
98,4451.79,3973.85,4396.92,4150.77,4062.05,3562.05,4452.82,4451.79,4740.51,4494.87,4565.64,4336.92,4340,3860,1655,1694,2.211,0,0,0,0,
99,4425.64,4009.74,4367.69,4194.87,4069.74,3571.28,4456.41,4452.31,4735.38,4500.51,4567.18,4330.77,4342.56,3852.31,1656,1695,2.219,0,0,0,0,
100,4426.15,4034.87,4353.85,4207.69,4086.15,3575.38,4455.38,4453.33,4742.56,4506.15,4563.59,4328.72,4342.56,3856.41,1655,1695,2.226,0,0,0,0,
101,4441.03,3992.31,4376.92,4155.38,4063.08,3570.77,4447.18,4444.62,4737.44,4478.46,4552.31,4330.77,4326.15,3865.13,1656,1696,2.234,0,0,0,0,
102,4432.82,3967.18,4388.21,4117.95,4039.49,3562.05,4441.54,4437.44,4725.13,4455.9,4551.28,4328.72,4319.49,3849.74,1656,1694,2.242,0,0,0,0,
103,4430.77,3981.03,4381.03,4140.51,4056.41,3559.49,4449.74,4444.1,4730.26,4470.77,4559.49,4329.74,4332.31,3845.64,1657,1694,2.25,0,0,0,0,
104,4434.87,3989.23,4380.51,4144.62,4064.62,3567.18,4460,4448.72,4736.92,4480,4563.59,4336.92,4340,3867.69,1657,1692,2.258,0,0,0,0,
105,4438.46,3990.26,4387.69,4144.1,4052.31,3571.28,4456.41,4443.59,4733.33,4477.44,4566.15,4339.49,4341.54,3870.26,1658,1692,2.265,0,0,0,0,
106,4447.18,4000,4386.15,4197.44,4067.69,3571.79,4457.95,4456.41,4748.72,4499.49,4574.36,4343.08,4353.85,3863.59,1657,1692,2.273,0,0,0,0,
107,4440,3996.41,4373.85,4205.64,4070.26,3571.28,4461.03,4466.15,4757.95,4504.62,4569.23,4340.51,4345.64,3855.9,1657,1694,2.281,0,0,0,0,
108,4420.51,3980.51,4371.28,4135.9,4043.08,3561.03,4447.69,4448.72,4732.31,4479.49,4560,4324.62,4324.1,3838.46,1657,1693,2.289,0,0,0,0,
109,4417.95,3988.21,4380.51,4114.36,4052.31,3552.82,4441.54,4443.59,4731.79,4482.56,4565.13,4324.62,4326.15,3847.18,1655,1695,2.297,0,0,0,0,
110,4429.74,3981.03,4386.67,4146.15,4069.74,3556.41,4449.23,4455.38,4757.44,4501.54,4564.62,4338.97,4335.9,3870.77,1655,1695,2.306,0,0,0,0,
111,4433.85,3935.38,4382.05,4153.33,4051.28,3555.9,4445.13,4444.1,4736.41,4482.56,4554.36,4334.87,4330.26,3856.92,1653,1696,2.312,0,0,0,0,
112,4419.49,3941.03,4361.54,4172.82,4032.31,3554.36,4435.9,4422.05,4700,4450.77,4551.79,4322.56,4318.97,3837.44,1653,1698,2.32,0,0,0,0,
113,4418.46,3987.69,4361.54,4170.77,4035.38,3558.46,4439.49,4427.69,4711.79,4454.36,4557.95,4329.23,4321.03,3851.28,1652,1697,2.328,0,0,0,0,
114,4455.38,3974.87,4405.64,4123.59,4055.38,3562.56,4451.28,4456.41,4749.74,4487.69,4574.36,4353.85,4347.18,3872.31,1653,1698,2.336,0,0,0,0,
115,4452.82,3945.13,4410.26,4122.05,4078.97,3560.51,4451.79,4461.54,4752.31,4500.51,4577.95,4355.38,4359.49,3862.05,1653,1696,2.344,0,0,0,0,
116,4412.82,3976.41,4365.64,4170.26,4082.05,3561.03,4442.56,4442.56,4730.77,4479.49,4560.51,4331.28,4345.13,3841.54,1654,1695,2.351,0,0,0,0,
117,4440,3969.74,4366.67,4193.33,4068.21,3566.67,4445.64,4444.62,4735.9,4473.33,4556.92,4327.18,4342.56,3860.51,1655,1693,2.359,0,0,0,0,
118,4470.26,3908.21,4389.23,4168.21,4062.05,3570.26,4455.9,4457.95,4747.18,4485.13,4569.23,4335.9,4348.21,3885.64,1656,1691,2.367,0,0,0,0,
119,4443.08,3945.64,4379.49,4153.85,4087.69,3578.97,4465.64,4464.1,4750.77,4500.51,4573.33,4343.59,4353.33,3881.03,1657,1689,2.375,0,0,0,0,
120,4436.41,3957.95,4384.62,4127.69,4073.85,3573.85,4460,4457.95,4745.13,4492.82,4557.95,4340.51,4348.21,3849.23,1658,1688,2.383,0,0,0,0,
121,4445.64,3839.49,4401.03,4083.08,3996.92,3543.08,4431.79,4425.13,4713.33,4443.08,4530.77,4315.38,4325.13,3817.44,1658,1689,2.391,0,0,0,0,
122,4444.1,3863.59,4392.31,4122.05,4018.46,3542.56,4430.26,4421.03,4709.74,4434.36,4548.21,4319.49,4341.54,3843.59,1656,1691,2.398,0,0,0,0,
123,4460,4017.95,4385.13,4203.59,4116.92,3576.41,4463.08,4461.54,4750.77,4484.62,4592.31,4358.46,4388.21,3888.21,1657,1692,2.406,0,0,0,0,
124,4471.79,3956.92,4386.67,4177.95,4106.15,3578.97,4467.69,4467.69,4755.9,4498.97,4585.64,4358.46,4380.51,3874.87,1656,1694,2.414,0,0,0,0,
125,4454.36,3812.31,4384.1,4086.67,4031.79,3564.62,4450.26,4437.44,4725.64,4468.72,4555.9,4330.77,4341.54,3851.28,1654,1694,2.422,0,0,0,0,
126,4441.03,3871.79,4383.08,4116.92,4035.38,3573.85,4458.46,4444.1,4736.41,4470.26,4567.69,4342.05,4349.74,3881.03,1654,1694,2.43,0,0,0,0,
127,4444.62,3965.64,4380,4198.46,4087.18,3577.95,4466.15,4463.59,4758.97,4491.28,4577.95,4357.95,4375.38,3891.79,1653,1692,2.437,0,0,0,0,
128,4444.62,3926.15,4367.18,4148.72,4109.74,3570.26,4460,4455.9,4747.69,4491.79,4570.77,4339.49,4384.62,3848.72,1652,1691,2.444,0,0,0,0,
0,4425.64,3868.21,4352.31,4066.15,4092.31,3569.23,4457.44,4441.03,4731.28,4477.44,4567.18,4312.31,4383.59,3816.41,1653,1689,2.453,0,0,0,0,
1,4406.15,3880.51,4349.74,4110.26,4067.69,3571.79,4456.92,4439.49,4735.38,4465.13,4569.74,4306.15,4378.97,3818.97,1651,1689,2.461,0,0,0,0,
2,4422.56,3921.03,4362.56,4206.67,4075.38,3582.56,4464.1,4453.85,4755.9,4483.59,4583.08,4328.21,4390.77,3847.69,1653,1689,2.469,0,0,0,0,
3,4438.46,3874.36,4373.85,4162.05,4069.23,3575.38,4456.92,4449.74,4746.15,4492.31,4583.59,4336.92,4384.1,3870.77,1653,1688,2.477,0,0,0,0,
4,4435.9,3837.44,4372.31,4092.82,4070.77,3558.97,4447.18,4440,4730.77,4484.62,4581.03,4340.51,4370.77,3879.49,1654,1690,2.484,0,0,0,0,
5,4452.82,3907.69,4373.85,4148.72,4112.31,3569.74,4465.64,4466.67,4762.05,4506.15,4613.85,4366.15,4405.64,3890.77,1655,1689,2.492,0,0,0,0,
6,4477.95,3890.77,4385.13,4156.92,4105.64,3571.79,4473.33,4478.46,4775.38,4512.31,4627.69,4366.67,4422.56,3884.62,1655,1689,2.5,0,0,0,0,
7,4467.18,3813.85,4388.21,4096.92,4072.31,3555.9,4458.46,4458.46,4753.85,4485.13,4597.44,4341.03,4391.79,3868.72,1658,1688,2.508,0,0,0,0,
8,4434.87,3853.33,4381.03,4117.95,4092.82,3556.92,4460.51,4458.46,4760.51,4484.62,4603.59,4342.05,4394.36,3865.13,1657,1688,2.515,0,0,0,0,
9,4407.69,3905.64,4355.38,4175.9,4106.67,3564.1,4462.56,4460,4760,4495.38,4628.72,4340,4404.62,3858.97,1658,1687,2.525,0,0,0,0,
10,4408.21,3874.87,4338.97,4177.44,4089.23,3564.1,4453.33,4445.64,4741.54,4485.13,4620,4330.77,4377.44,3858.46,1657,1689,2.531,0,0,0,0,
11,4441.03,3882.05,4365.64,4158.46,4118.46,3578.97,4470.77,4468.21,4768.72,4503.59,4634.87,4362.05,4392.31,3885.64,1658,1689,2.539,0,0,0,0,
12,4461.54,3900.51,4400,4121.03,4150.26,3575.38,4478.46,4481.54,4780,4518.97,4664.1,4375.9,4423.08,3900.51,1656,1691,2.547,0,0,0,0,
13,4460,3838.97,4407.69,4093.33,4121.03,3546.15,4454.36,4453.85,4744.62,4488.21,4644.1,4351.28,4392.82,3890.77,1657,1692,2.554,0,0,0,0,
14,4450.77,3838.46,4385.64,4172.82,4111.28,3548.21,4452.31,4452.31,4749.23,4482.56,4622.56,4356.41,4376.41,3890.26,1657,1691,2.563,0,0,0,0,
15,4427.18,3916.41,4356.92,4215.9,4146.67,3567.69,4463.08,4465.13,4767.18,4496.92,4633.85,4356.92,4396.92,3863.08,1655,1692,2.57,0,0,0,0,
16,4411.79,3902.05,4346.15,4130.26,4135.9,3558.97,4448.72,4447.69,4739.49,4482.56,4634.87,4322.05,4388.72,3830.26,1656,1692,2.577,0,0,0,0,
17,4431.28,3791.79,4362.05,4080.51,4077.44,3534.36,4434.36,4430.26,4721.03,4467.69,4629.74,4312.31,4363.59,3857.95,1654,1693,2.585,0,0,0,0,
18,4448.72,3812.82,4382.56,4127.18,4100,3543.59,4454.87,4445.13,4744.62,4476.92,4651.79,4345.13,4369.74,3902.05,1656,1692,2.594,0,0,0,0,
19,4449.74,3911.28,4392.82,4157.44,4182.05,3575.9,4484.1,4475.9,4779.49,4502.56,4689.74,4368.72,4413.85,3893.85,1655,1692,2.601,0,0,0,0,
20,4442.56,3855.38,4388.72,4113.85,4167.18,3573.33,4481.54,4480,4790.77,4517.95,4695.9,4348.21,4420,3868.72,1656,1692,2.61,0,0,0,0,
21,4402.56,3813.85,4352.82,4101.03,4110.26,3549.74,4456.41,4449.23,4764.62,4494.36,4661.03,4308.72,4366.67,3854.87,1655,1691,2.617,0,0,0,0,
22,4388.21,3885.13,4335.38,4150.26,4148.72,3553.33,4453.33,4436.41,4747.18,4471.79,4651.28,4308.21,4356.41,3849.23,1656,1688,2.625,0,0,0,0,
23,4454.36,3838.97,4373.85,4152.82,4185.13,3564.1,4466.67,4447.18,4748.72,4476.92,4676.92,4335.9,4386.67,3873.33,1654,1687,2.633,0,0,0,0,
24,4461.54,3740,4386.15,4109.74,4122.05,3544.1,4450.77,4427.69,4723.08,4456.92,4666.15,4321.54,4359.49,3891.28,1655,1688,2.64,0,0,0,0,
25,4389.23,3840,4362.05,4080,4115.9,3532.31,4441.54,4422.05,4723.08,4451.28,4654.36,4311.28,4344.1,3879.49,1655,1689,2.649,0,0,0,0,
26,4393.33,3947.69,4369.74,4089.23,4187.18,3555.9,4467.69,4464.1,4772.82,4503.08,4699.49,4343.59,4402.56,3858.97,1654,1692,2.656,0,0,0,0,
27,4428.21,3906.67,4371.28,4168.21,4208.72,3580,4485.13,4482.56,4790.77,4528.21,4728.21,4349.74,4424.62,3842.05,1655,1692,2.664,0,0,0,0,
28,4426.67,3890.77,4343.59,4246.15,4205.13,3575.9,4475.9,4464.62,4772.82,4507.18,4718.97,4328.21,4398.97,3866.15,1654,1693,2.671,0,0,0,0,
29,4432.31,3913.85,4351.79,4196.92,4207.18,3556.41,4466.67,4453.85,4765.64,4500,4729.23,4326.15,4391.28,3899.49,1655,1692,2.68,0,0,0,0,
30,4420,3897.44,4366.67,4130.77,4206.15,3554.87,4470.77,4461.54,4770.26,4507.69,4754.87,4334.36,4399.49,3880,1654,1689,2.687,0,0,0,0,
31,4413.85,3871.79,4368.21,4177.95,4212.31,3566.67,4477.44,4475.38,4787.18,4514.36,4764.62,4341.03,4421.03,3858.46,1655,1688,2.696,0,0,0,0,
32,4449.23,3807.18,4392.82,4158.97,4156.92,3546.15,4460.51,4460,4782.56,4492.82,4736.92,4337.44,4394.36,3878.97,1655,1687,2.703,0,0,0,0,
33,4409.74,3766.67,4372.82,4071.79,4081.54,3520,4431.79,4422.56,4740.51,4456.92,4705.64,4305.13,4333.33,3851.79,1656,1687,2.711,0,0,0,0,
34,4346.67,3853.33,4329.23,4114.87,4157.44,3544.1,4447.69,4433.33,4740,4474.87,4734.87,4294.36,4365.64,3819.49,1655,1688,2.719,0,0,0,0,
35,4421.03,3920,4374.87,4196.92,4275.38,3572.82,4486.15,4480,4790.77,4523.08,4778.46,4346.15,4428.21,3883.08,1656,1690,2.726,0,0,0,0,
36,4458.46,3923.08,4392.82,4218.46,4263.59,3562.05,4477.95,4484.1,4804.62,4527.69,4772.31,4369.74,4408.21,3921.03,1657,1689,2.735,0,0,0,0,
37,4409.23,3924.62,4350.77,4224.62,4227.18,3553.33,4446.67,4468.21,4785.64,4520,4774.87,4338.97,4400.51,3867.69,1655,1692,2.741,0,0,0,0,
38,4443.08,3865.13,4393.85,4173.33,4210.26,3556.92,4436.41,4468.72,4774.36,4516.92,4790.26,4336.92,4417.95,3853.85,1656,1693,2.75,0,0,0,0,
39,4466.67,3817.44,4427.18,4144.1,4184.62,3547.18,4426.67,4460.51,4767.18,4495.38,4764.62,4351.28,4383.08,3911.28,1655,1695,2.757,0,0,0,0,
40,4388.72,3873.85,4345.13,4193.33,4193.33,3532.31,4403.59,4441.54,4759.49,4481.54,4741.54,4326.67,4362.05,3911.79,1656,1696,2.766,0,0,0,0,
41,4362.56,3922.05,4324.62,4145.64,4210.77,3527.18,4400,4441.03,4761.54,4493.33,4760,4308.21,4386.67,3848.72,1655,1696,2.774,0,0,0,0,
42,4433.33,3907.69,4411.28,4087.69,4217.44,3537.95,4424.62,4469.74,4786.67,4514.87,4789.23,4348.21,4399.49,3852.31,1655,1696,2.781,0,0,0,0,
43,4459.49,3864.1,4430.77,4176.92,4222.56,3546.67,4433.33,4485.64,4805.13,4521.54,4799.49,4379.49,4398.46,3920,1655,1695,2.789,0,0,0,0,
44,4412.82,3821.03,4366.67,4204.62,4181.03,3532.31,4408.21,4452.82,4775.38,4490.26,4772.82,4345.13,4383.08,3914.87,1655,1695,2.796,0,0,0,0,
45,4387.18,3868.72,4361.54,4122.56,4167.18,3531.28,4405.64,4433.85,4751.28,4468.72,4752.31,4322.05,4374.36,3864.62,1655,1694,2.805,0,0,0,0,
46,4417.95,3964.62,4409.74,4167.18,4253.85,3560,4442.56,4477.44,4793.33,4512.82,4792.82,4361.54,4401.03,3901.54,1654,1695,2.812,0,0,0,0,
47,4446.15,3936.41,4429.74,4244.62,4294.87,3565.13,4455.38,4502.56,4822.05,4542.56,4809.23,4397.44,4396.41,3959.49,1654,1693,2.824,0,0,0,0,
48,4411.28,3831.28,4414.36,4157.95,4214.87,3544.1,4425.13,4460,4777.95,4492.82,4752.31,4361.54,4359.49,3904.62,1655,1692,2.828,0,0,0,0,
49,4368.72,3832.82,4396.92,4056.41,4178.46,3541.54,4407.69,4429.23,4744.1,4456.41,4728.21,4309.23,4365.64,3829.23,1654,1692,2.836,0,0,0,0,
50,4362.05,3954.36,4378.46,4121.03,4243.59,3549.74,4415.38,4448.21,4763.08,4488.72,4764.1,4315.9,4386.67,3848.21,1656,1693,2.843,0,0,0,0,
51,4385.13,3974.87,4371.28,4226.67,4254.87,3540.51,4412.82,4453.33,4771.79,4505.64,4775.9,4336.92,4375.9,3878.97,1655,1693,2.851,0,0,0,0,
52,4408.21,3875.38,4400.51,4189.74,4209.23,3532.82,4406.67,4441.54,4760.51,4478.97,4769.23,4328.21,4369.74,3875.9,1656,1694,2.859,0,0,0,0,
53,4403.08,3886.67,4425.64,4146.15,4234.87,3543.08,4418.97,4455.38,4771.28,4490.77,4785.64,4333.33,4384.62,3874.36,1656,1694,2.867,0,0,0,0,
54,4384.1,3972.31,4414.87,4192.31,4270.77,3543.08,4421.03,4458.97,4774.87,4509.23,4792.82,4355.38,4377.95,3881.03,1656,1694,2.875,0,0,0,0,
55,4386.15,3947.18,4404.1,4218.46,4238.97,3535.9,4409.74,4443.08,4762.05,4489.74,4788.72,4353.33,4367.18,3903.08,1655,1692,2.883,0,0,0,0,
56,4400,3882.56,4414.87,4179.49,4217.95,3540.51,4415.9,4452.31,4773.33,4494.87,4790.26,4350.26,4379.49,3907.18,1655,1691,2.89,0,0,0,0,
57,4403.59,3891.28,4434.87,4122.56,4226.67,3534.87,4418.97,4459.49,4777.44,4506.67,4786.15,4358.97,4369.74,3884.1,1657,1688,2.899,0,0,0,0,
58,4404.62,3934.87,4434.87,4133.85,4216.92,3528.72,4410.77,4444.62,4763.08,4493.85,4794.87,4356.92,4360,3890.26,1653,1687,2.907,0,0,0,0,
59,4392.82,3930.26,4424.1,4181.03,4211.28,3533.33,4414.87,4445.13,4764.1,4490.77,4809.74,4359.49,4369.23,3914.87,1656,1688,2.914,0,0,0,0,
60,4393.33,3902.56,4423.08,4192.82,4240.51,3539.49,4429.23,4462.56,4776.41,4504.62,4806.67,4363.59,4378.46,3895.9,1655,1689,2.921,0,0,0,0,
61,4430.77,3928.21,4440,4192.82,4263.59,3542.05,4429.23,4465.64,4772.31,4495.9,4781.03,4364.1,4368.21,3896.92,1654,1692,2.93,0,0,0,0,
62,4399.49,3930.77,4431.28,4175.9,4224.62,3526.67,4408.72,4443.08,4746.15,4460,4731.79,4353.33,4316.92,3912.82,1655,1691,2.937,0,0,0,0,
63,4331.28,3891.79,4403.59,4114.36,4190.77,3519.49,4404.62,4433.33,4745.64,4456.92,4712.31,4335.38,4299.49,3867.18,1656,1691,2.945,0,0,0,0,
64,4370.26,3910.26,4413.85,4133.33,4232.82,3546.67,4425.13,4453.85,4775.9,4483.59,4761.54,4326.67,4358.97,3827.18,1656,1689,2.954,0,0,0,0,
65,4415.38,3973.85,4431.79,4231.79,4288.72,3565.13,4436.92,4467.18,4788.21,4496.41,4816.92,4328.21,4406.67,3843.08,1656,1688,2.961,0,0,0,0,
66,4361.03,4004.1,4417.44,4197.95,4278.97,3546.15,4427.18,4460,4782.56,4504.1,4822.56,4331.79,4392.82,3860,1656,1688,2.969,0,0,0,0,
67,4358.46,3980,4415.9,4149.74,4253.33,3537.44,4425.13,4465.13,4790.77,4515.38,4807.18,4348.72,4369.23,3890.77,1656,1690,2.976,0,0,0,0,
68,4419.49,3934.87,4440,4220.51,4267.69,3545.64,4440.51,4484.62,4806.67,4523.59,4820,4373.33,4384.62,3940,1657,1690,2.985,0,0,0,0,
69,4413.33,3913.33,4450.77,4225.64,4257.44,3532.31,4437.44,4475.9,4795.9,4517.44,4836.41,4368.72,4398.46,3917.44,1655,1691,2.993,0,0,0,0,
70,4387.69,3930.77,4446.67,4134.36,4218.97,3520,4422.05,4455.9,4776.41,4510.26,4820,4350.77,4373.85,3875.38,1656,1690,3,0,0,0,0,
71,4404.62,3933.33,4443.08,4131.28,4216.41,3520,4417.95,4453.85,4770.26,4497.44,4773.85,4362.56,4320,3915.38,1655,1690,3.008,0,0,0,0,
72,4416.41,3929.74,4455.9,4192.31,4232.31,3529.74,4432.31,4462.56,4781.03,4497.95,4755.9,4390.77,4322.05,3950.77,1655,1691,3.015,0,0,0,0,
73,4390.77,3919.49,4461.03,4160.51,4203.08,3532.82,4427.69,4450.77,4775.38,4495.9,4768.72,4369.74,4364.62,3893.33,1655,1690,3.024,0,0,0,0,
74,4344.62,3896.92,4417.95,4103.59,4173.85,3514.36,4398.46,4419.49,4742.56,4465.13,4760.51,4303.08,4349.23,3824.1,1656,1692,3.032,0,0,0,0,
75,4368.72,3950.77,4418.97,4143.08,4229.23,3518.97,4412.31,4438.46,4763.59,4477.95,4774.87,4315.38,4345.13,3870.26,1655,1693,3.039,0,0,0,0,
76,4423.59,3983.08,4482.56,4195.38,4279.49,3543.08,4445.13,4476.92,4804.62,4512.31,4814.87,4371.28,4384.62,3918.46,1656,1694,3.046,0,0,0,0,
77,4392.31,3942.56,4475.9,4180.51,4264.1,3546.15,4438.97,4469.23,4795.9,4513.33,4827.18,4366.15,4399.49,3877.44,1656,1693,3.054,0,0,0,0,
78,4363.08,3945.64,4431.79,4158.46,4231.28,3535.38,4424.1,4451.79,4777.95,4503.08,4802.05,4342.56,4368.21,3862.05,1655,1692,3.062,0,0,0,0,
79,4413.33,4011.79,4469.23,4205.13,4242.56,3545.13,4444.62,4471.28,4794.87,4512.31,4794.36,4363.59,4353.33,3916.41,1656,1689,3.07,0,0,0,0,
80,4430.77,4004.62,4491.28,4238.46,4270.26,3552.31,4461.54,4487.18,4812.82,4528.21,4811.79,4388.21,4376.41,3933.85,1653,1689,3.079,0,0,0,0,
81,4376.41,3922.56,4433.33,4143.08,4218.46,3524.62,4425.64,4446.15,4776.92,4501.54,4800,4355.38,4361.54,3875.38,1653,1691,3.087,0,0,0,0,
82,4375.9,3930.26,4433.33,4106.67,4183.08,3512.82,4408.72,4424.1,4747.69,4476.92,4790.77,4326.67,4351.79,3855.38,1652,1692,3.094,0,0,0,0,
83,4425.13,4010.26,4491.28,4248.21,4268.72,3543.59,4450.26,4470.77,4788.21,4522.05,4824.62,4372.31,4406.15,3931.28,1651,1694,3.101,0,0,0,0,
84,4435.9,4008.21,4494.87,4272.31,4315.9,3552.82,4464.62,4493.33,4813.85,4557.95,4848.72,4416.41,4424.1,3994.87,1652,1694,3.11,0,0,0,0,
85,4412.82,3907.69,4470.77,4102.56,4201.54,3516.41,4416.41,4442.05,4756.92,4495.9,4802.05,4377.95,4345.13,3938.46,1652,1695,3.117,0,0,0,0,
86,4398.97,3904.62,4477.95,4085.13,4164.1,3516.41,4409.23,4430.26,4743.08,4458.46,4780,4348.72,4333.85,3854.87,1653,1694,3.125,0,0,0,0,
87,4396.41,3987.69,4471.79,4185.13,4263.08,3541.03,4438.46,4467.18,4788.72,4495.9,4812.82,4355.38,4406.15,3854.87,1653,1694,3.132,0,0,0,0,
88,4392.31,3965.13,4451.28,4171.28,4269.74,3528.21,4421.03,4452.31,4772.82,4486.67,4787.69,4344.1,4376.92,3908.21,1655,1692,3.14,0,0,0,0,
89,4400,3924.62,4465.64,4164.62,4225.13,3523.59,4410.77,4437.95,4754.87,4470.77,4755.9,4367.69,4317.44,3936.92,1655,1692,3.149,0,0,0,0,
90,4381.03,3962.56,4467.18,4221.03,4244.1,3535.9,4432.31,4462.05,4786.15,4502.05,4792.31,4377.44,4363.08,3876.92,1657,1692,3.157,0,0,0,0,
91,4353.85,3999.49,4433.85,4225.13,4262.05,3529.23,4432.31,4464.1,4792.31,4511.28,4823.08,4322.56,4414.87,3819.49,1657,1691,3.165,0,0,0,0,
92,4391.28,3969.74,4442.56,4189.74,4241.54,3527.18,4427.69,4454.87,4782.56,4496.41,4815.9,4323.08,4392.31,3884.1,1658,1690,3.172,0,0,0,0,
93,4416.92,3953.33,4470.26,4193.33,4232.82,3544.62,4445.13,4473.85,4801.54,4518.46,4825.13,4372.82,4384.1,3945.64,1658,1689,3.18,0,0,0,0,
94,4396.92,3974.36,4476.41,4166.67,4234.87,3543.08,4448.72,4477.95,4801.54,4528.72,4817.95,4368.72,4384.62,3911.79,1657,1690,3.187,0,0,0,0,
95,4406.67,3952.31,4492.31,4129.23,4233.85,3526.67,4435.9,4463.08,4783.08,4497.95,4780.51,4369.23,4350.77,3895.9,1656,1690,3.196,0,0,0,0,
96,4410.26,3928.21,4485.13,4178.46,4223.08,3525.13,4430.26,4455.9,4777.44,4482.56,4772.82,4378.46,4354.36,3900,1655,1691,3.204,0,0,0,0,
97,4358.46,3972.31,4436.41,4207.69,4205.64,3527.69,4428.72,4447.18,4769.23,4487.69,4788.21,4334.36,4380,3869.74,1655,1692,3.211,0,0,0,0,
98,4360,3976.92,4436.41,4169.23,4217.44,3526.15,4427.69,4445.64,4768.21,4489.23,4792.31,4318.46,4360.51,3862.56,1653,1692,3.219,0,0,0,0,
99,4407.18,3890.77,4476.92,4143.59,4227.69,3520.51,4424.62,4451.28,4773.85,4487.18,4791.28,4348.21,4348.72,3881.54,1654,1691,3.226,0,0,0,0,
100,4404.1,3921.54,4481.54,4183.59,4244.1,3529.74,4435.9,4465.64,4787.18,4506.15,4809.23,4358.97,4388.21,3892.82,1653,1690,3.235,0,0,0,0,
101,4384.62,4021.54,4473.85,4206.67,4250.26,3543.08,4447.69,4475.9,4798.46,4518.97,4807.69,4361.03,4386.67,3893.85,1654,1690,3.243,0,0,0,0,
102,4374.87,3958.97,4474.36,4162.56,4211.28,3538.97,4435.9,4462.05,4781.54,4495.9,4779.49,4363.08,4348.21,3892.31,1655,1690,3.25,0,0,0,0,
103,4369.74,3896.92,4458.46,4146.15,4199.49,3531.79,4422.56,4445.13,4763.08,4482.05,4784.62,4338.46,4361.03,3887.69,1657,1689,3.259,0,0,0,0,
104,4391.79,3969.74,4463.59,4193.85,4248.21,3535.9,4435.9,4458.46,4785.13,4503.08,4809.23,4336.41,4387.18,3896.92,1656,1689,3.265,0,0,0,0,
105,4401.54,3993.85,4482.56,4216.41,4263.59,3542.05,4446.15,4474.36,4807.18,4517.95,4807.69,4360,4386.15,3897.44,1657,1689,3.274,0,0,0,0,
106,4373.85,3965.64,4473.33,4179.49,4221.54,3536.41,4430.77,4458.46,4786.67,4503.08,4795.38,4356.41,4375.9,3897.44,1656,1691,3.281,0,0,0,0,
107,4407.18,3975.38,4494.36,4146.15,4219.49,3534.87,4434.87,4458.46,4782.05,4508.21,4800,4370.26,4383.59,3937.95,1657,1692,3.29,0,0,0,0,
108,4460.51,3932.82,4532.31,4117.95,4215.9,3525.64,4436.92,4462.56,4779.49,4502.56,4780.51,4385.13,4367.69,3919.49,1655,1694,3.297,0,0,0,0,
109,4398.46,3912.82,4485.64,4134.36,4175.38,3511.79,4415.38,4440,4752.82,4468.72,4760,4350.77,4342.56,3846.15,1656,1694,3.305,0,0,0,0,
110,4332.82,4022.05,4435.9,4234.87,4212.31,3535.38,4421.54,4447.18,4772.31,4498.46,4805.13,4337.95,4387.18,3858.46,1654,1694,3.312,0,0,0,0,
111,4382.05,4063.08,4473.85,4275.38,4287.18,3563.59,4452.31,4483.08,4818.46,4556.41,4856.41,4365.64,4440,3904.62,1655,1695,3.32,0,0,0,0,
112,4428.72,3976.92,4509.23,4213.85,4275.38,3549.74,4452.82,4483.59,4811.79,4540.51,4850.26,4365.13,4424.62,3904.1,1654,1694,3.329,0,0,0,0,
113,4393.33,3963.59,4484.1,4174.87,4221.03,3532.31,4431.28,4455.9,4781.03,4501.03,4821.03,4345.64,4392.31,3919.49,1652,1693,3.336,0,0,0,0,
114,4376.41,4012.82,4473.33,4189.23,4230.26,3542.56,4431.28,4452.31,4780.51,4510.77,4806.67,4352.31,4385.64,3921.54,1654,1690,3.344,0,0,0,0,
115,4397.44,3988.21,4486.67,4200.51,4241.54,3545.64,4438.97,4455.38,4781.54,4511.28,4796.41,4352.82,4371.28,3872.82,1653,1689,3.351,0,0,0,0,
116,4400,3954.36,4493.33,4190.77,4218.46,3542.05,4444.1,4457.44,4790.77,4501.03,4801.54,4350.77,4369.23,3891.79,1654,1689,3.36,0,0,0,0,
117,4398.97,3982.05,4495.9,4203.08,4223.08,3544.62,4440.51,4463.59,4804.62,4520.51,4809.74,4360.51,4400,3923.59,1654,1689,3.367,0,0,0,0,
118,4402.05,3995.38,4490.26,4207.18,4237.44,3540.51,4427.18,4452.31,4780,4526.15,4791.79,4359.49,4393.85,3892.31,1655,1690,3.375,0,0,0,0,
119,4416.41,3981.03,4509.74,4169.23,4223.08,3542.56,4429.23,4441.03,4759.49,4507.18,4792.31,4369.74,4365.13,3940,1655,1691,3.383,0,0,0,0,
120,4441.03,3994.36,4528.72,4175.38,4211.28,3546.67,4434.36,4449.23,4775.9,4501.03,4810.26,4376.92,4381.54,3972.31,1656,1693,3.391,0,0,0,0,
121,4438.97,4004.62,4511.28,4212.31,4223.08,3539.49,4431.79,4460.51,4787.18,4515.38,4807.18,4366.15,4401.54,3892.82,1655,1692,3.399,0,0,0,0,
122,4411.79,3980.51,4502.05,4186.67,4217.95,3534.36,4433.85,4455.9,4775.9,4519.49,4789.74,4354.36,4384.1,3855.38,1655,1694,3.406,0,0,0,0,
123,4405.13,4008.21,4515.38,4158.46,4226.67,3545.13,4443.59,4454.87,4783.59,4519.49,4795.38,4357.95,4392.31,3914.36,1655,1693,3.414,0,0,0,0,
124,4428.72,4024.62,4528.21,4173.85,4246.67,3554.36,4448.72,4467.69,4798.46,4520,4794.36,4374.36,4398.46,3948.21,1654,1694,3.422,0,0,0,0,
125,4434.87,3964.62,4520,4191.79,4220,3549.74,4440.51,4462.05,4784.1,4507.18,4768.21,4370.77,4367.18,3908.72,1655,1692,3.431,0,0,0,0,
126,4414.87,3990.77,4494.87,4217.95,4218.97,3551.79,4441.03,4454.36,4774.36,4509.23,4771.28,4357.44,4377.44,3890.26,1653,1692,3.437,0,0,0,0,
127,4397.95,4067.69,4486.15,4226.67,4266.67,3563.08,4454.87,4467.18,4790.77,4532.82,4791.28,4361.54,4405.13,3914.87,1654,1690,3.445,0,0,0,0,
128,4387.69,4031.79,4494.87,4195.38,4249.23,3561.03,4454.36,4467.18,4792.31,4530.77,4775.38,4358.46,4376.92,3911.79,1654,1688,3.454,0,0,0,0,
0,4395.38,3973.85,4494.87,4188.72,4191.79,3551.79,4442.05,4452.31,4779.49,4504.1,4754.87,4338.97,4361.54,3881.03,1654,1687,3.462,0,0,0,0,
1,4410.26,4000.51,4492.82,4191.79,4198.97,3553.33,4440,4453.33,4777.95,4505.64,4770.77,4335.38,4393.85,3887.69,1653,1686,3.47,0,0,0,0,
2,4412.82,4025.13,4506.67,4180,4228.21,3558.97,4446.67,4464.1,4775.9,4525.64,4788.21,4353.85,4406.15,3905.64,1654,1687,3.477,0,0,0,0,
3,4410.26,3996.41,4512.31,4190.77,4223.59,3553.33,4444.1,4460.51,4768.72,4523.08,4784.62,4353.85,4391.79,3892.82,1653,1687,3.484,0,0,0,0,
4,4412.31,4005.13,4500.51,4196.41,4213.85,3540.51,4436.41,4445.64,4762.56,4506.15,4768.72,4347.18,4367.18,3915.9,1653,1689,3.492,0,0,0,0,
5,4421.03,4037.95,4508.21,4182.05,4220,3538.46,4437.44,4447.18,4764.62,4501.03,4755.9,4351.28,4360.51,3915.38,1654,1689,3.5,0,0,0,0,
6,4423.59,4041.54,4517.44,4203.59,4231.28,3554.36,4443.59,4460.51,4778.46,4510.26,4764.1,4354.87,4385.64,3876.92,1653,1693,3.509,0,0,0,0,
7,4411.79,4004.62,4509.74,4209.23,4218.46,3559.49,4441.03,4453.33,4776.92,4509.74,4768.21,4350.26,4390.77,3886.15,1655,1692,3.516,0,0,0,0,
8,4410.26,3987.69,4505.13,4203.08,4195.38,3545.13,4428.72,4439.49,4761.54,4503.08,4766.67,4342.05,4376.41,3894.87,1654,1693,3.524,0,0,0,0,
9,4432.82,4025.13,4508.72,4234.87,4202.56,3541.03,4430.77,4452.31,4770.26,4511.79,4778.46,4346.67,4385.13,3884.1,1656,1693,3.531,0,0,0,0,
10,4418.97,4074.36,4505.13,4215.38,4225.64,3550.77,4443.08,4466.67,4788.72,4528.21,4786.15,4354.87,4404.62,3900,1655,1692,3.54,0,0,0,0,
11,4395.9,4054.87,4503.59,4173.33,4215.9,3550.26,4443.08,4464.62,4784.1,4537.95,4783.08,4359.49,4398.97,3915.9,1656,1692,3.547,0,0,0,0,
12,4428.21,3958.97,4517.44,4163.59,4176.41,3541.54,4430.77,4456.41,4772.31,4526.15,4775.38,4357.44,4372.31,3918.46,1656,1690,3.555,0,0,0,0,
13,4421.54,3946.67,4509.23,4167.18,4168.21,3540,4422.05,4442.56,4764.1,4494.87,4746.67,4337.44,4350.77,3907.69,1656,1690,3.564,0,0,0,0,
14,4374.36,4034.36,4484.62,4199.49,4205.64,3549.23,4431.28,4446.15,4764.1,4487.18,4726.67,4322.56,4358.97,3873.85,1656,1690,3.571,0,0,0,0,
15,4379.49,4064.1,4483.59,4238.46,4216.41,3556.92,4443.08,4456.41,4766.67,4503.08,4750.26,4330.26,4373.85,3853.33,1656,1691,3.579,0,0,0,0,
16,4409.23,4027.69,4503.08,4221.54,4192.82,3557.95,4444.62,4453.33,4764.1,4510.26,4775.9,4340,4372.82,3884.62,1655,1692,3.586,0,0,0,0,
17,4425.64,3993.33,4523.08,4161.54,4180,3553.33,4440.51,4448.72,4764.62,4504.62,4763.59,4343.08,4353.33,3914.36,1654,1694,3.594,0,0,0,0,
18,4430.26,3989.74,4520,4156.41,4176.92,3544.62,4432.82,4448.21,4766.15,4494.87,4743.59,4346.15,4338.46,3920,1655,1695,3.603,0,0,0,0,
19,4405.13,4029.23,4498.46,4211.28,4177.44,3542.05,4431.28,4447.69,4769.23,4500.51,4753.85,4335.9,4367.69,3908.72,1653,1695,3.609,0,0,0,0,
20,4402.56,4058.46,4508.72,4226.15,4191.28,3551.79,4442.56,4457.95,4782.56,4533.33,4776.92,4328.21,4414.87,3870.26,1654,1695,3.618,0,0,0,0,
21,4441.03,4034.36,4531.28,4190.26,4188.21,3558.46,4446.15,4466.15,4787.18,4541.03,4762.56,4345.64,4394.36,3866.15,1653,1695,3.626,0,0,0,0,
22,4421.03,4009.23,4509.74,4186.67,4163.59,3553.85,4432.82,4450.77,4773.33,4507.18,4736.41,4345.13,4350.26,3876.41,1653,1695,3.634,0,0,0,0,
23,4377.44,4040.51,4488.72,4207.69,4167.69,3557.44,4429.23,4442.05,4765.64,4498.46,4761.03,4322.05,4377.95,3860,1654,1692,3.641,0,0,0,0,
24,4403.08,4084.62,4502.56,4207.18,4179.49,3560,4433.85,4447.69,4768.21,4505.13,4775.9,4325.64,4390.26,3892.82,1653,1691,3.649,0,0,0,0,
25,4442.05,4036.41,4520,4210.77,4164.1,3555.38,4433.33,4449.23,4765.13,4491.28,4736.92,4343.59,4335.9,3934.87,1653,1689,3.656,0,0,0,0,
26,4424.1,3984.1,4514.87,4209.74,4154.87,3556.41,4439.49,4453.85,4768.21,4493.33,4730.77,4344.62,4327.18,3905.64,1653,1689,3.664,0,0,0,0,
27,4392.31,4035.9,4508.72,4183.59,4155.9,3558.97,4442.05,4460,4773.33,4515.38,4770.77,4338.97,4384.62,3858.46,1654,1688,3.673,0,0,0,0,
28,4403.59,4079.49,4515.9,4191.28,4149.23,3557.44,4434.87,4457.95,4764.62,4519.49,4775.9,4343.08,4403.59,3876.41,1656,1690,3.68,0,0,0,0,
29,4426.67,4045.64,4519.49,4225.13,4144.62,3561.03,4432.82,4456.41,4768.72,4518.46,4756.92,4354.36,4375.38,3909.23,1656,1691,3.689,0,0,0,0,
30,4431.79,4024.62,4522.05,4189.74,4136.41,3557.95,4433.85,4461.54,4784.1,4526.15,4764.62,4356.92,4372.31,3908.72,1657,1692,3.696,0,0,0,0,
31,4426.15,4027.69,4524.62,4132.82,4107.69,3544.1,4425.64,4452.31,4769.74,4509.23,4755.9,4344.62,4368.72,3898.97,1656,1691,3.704,0,0,0,0,
32,4403.59,4048.72,4512.31,4189.74,4093.85,3545.13,4422.56,4440,4751.79,4487.18,4730.77,4334.87,4354.36,3880,1656,1693,3.712,0,0,0,0,
33,4391.28,4090.77,4494.87,4274.87,4116.92,3560.51,4430.77,4450.26,4768.72,4503.59,4744.1,4339.49,4367.69,3890.77,1655,1693,3.72,0,0,0,0,
34,4424.1,4028.21,4517.44,4216.41,4116.92,3559.49,4431.79,4459.49,4779.49,4524.62,4768.21,4341.54,4385.64,3923.59,1655,1692,3.728,0,0,0,0,
35,4454.87,3973.85,4549.23,4151.28,4091.79,3549.74,4427.18,4452.82,4769.74,4513.85,4756.41,4341.54,4376.41,3916.92,1655,1690,3.735,0,0,0,0,
36,4435.9,4067.69,4534.87,4195.38,4092.31,3560.51,4427.18,4449.74,4767.18,4504.1,4738.97,4345.13,4364.1,3889.23,1655,1689,3.742,0,0,0,0,
37,4414.87,4119.49,4508.21,4222.56,4116.92,3577.44,4431.79,4455.9,4771.79,4509.74,4743.59,4347.69,4363.08,3889.23,1656,1686,3.75,0,0,0,0,
38,4412.82,4044.62,4504.62,4197.95,4106.67,3569.23,4431.28,4449.23,4767.18,4496.41,4740,4336.92,4353.33,3906.15,1654,1687,3.759,0,0,0,0,
39,4407.18,3993.85,4515.9,4170.26,4078.46,3553.85,4427.18,4443.59,4762.05,4488.72,4727.18,4326.15,4355.38,3902.05,1655,1689,3.766,0,0,0,0,
40,4414.36,4042.56,4527.18,4169.74,4093.85,3554.36,4430.26,4455.38,4765.64,4510.26,4725.13,4334.87,4375.38,3896.41,1654,1689,3.774,0,0,0,0,
41,4438.97,4077.95,4531.28,4213.85,4103.08,3560,4434.87,4457.44,4764.62,4513.33,4735.9,4349.23,4378.97,3901.03,1653,1693,3.782,0,0,0,0,
42,4442.56,4054.87,4528.21,4223.08,4066.15,3555.38,4430.26,4448.72,4754.36,4491.28,4740,4351.79,4364.1,3903.59,1654,1695,3.79,0,0,0,0,
43,4426.15,4046.67,4524.1,4184.1,4058.97,3553.33,4428.72,4453.33,4758.46,4496.41,4724.62,4350.77,4353.33,3910.26,1653,1696,3.797,0,0,0,0,
44,4420.51,4068.21,4525.13,4198.46,4091.79,3557.95,4431.28,4460.51,4772.31,4514.87,4715.9,4347.18,4357.44,3914.36,1653,1695,3.805,0,0,0,0,
45,4415.9,4048.21,4523.08,4223.08,4081.54,3554.36,4422.56,4446.67,4760.51,4502.05,4720.51,4333.33,4354.36,3911.28,1653,1694,3.814,0,0,0,0,
46,4409.23,4018.97,4511.28,4187.69,4056.41,3547.69,4412.82,4432.31,4749.23,4490.26,4717.95,4320,4357.95,3879.49,1654,1691,3.821,0,0,0,0,
47,4439.49,4054.87,4513.33,4170.26,4062.56,3546.15,4410.77,4431.79,4753.85,4489.23,4700.51,4321.54,4360.51,3866.67,1653,1690,3.829,0,0,0,0,
48,4493.33,4084.1,4538.46,4191.28,4062.56,3542.05,4405.13,4423.59,4741.03,4475.38,4695.38,4333.85,4347.18,3923.08,1655,1688,3.836,0,0,0,0,
49,4540,4105.13,4554.36,4221.03,4076.41,3542.05,4406.67,4420,4734.36,4476.41,4722.05,4351.28,4364.1,3990.77,1653,1689,3.844,0,0,0,0,
50,4591.79,4140,4555.9,4253.85,4098.97,3551.79,4415.9,4425.64,4745.13,4488.72,4737.44,4365.13,4388.72,4027.18,1654,1690,3.853,0,0,0,0,
51,4641.03,4142.56,4570.77,4273.85,4083.08,3556.92,4418.46,4427.18,4742.56,4486.15,4726.67,4375.9,4392.82,4039.49,1654,1690,3.86,0,0,0,0,
52,4671.79,4135.38,4601.03,4255.38,4067.69,3554.36,4422.56,4435.9,4741.03,4495.9,4737.95,4392.82,4405.64,4060,1654,1693,3.869,0,0,0,0,
53,4669.74,4130.26,4609.23,4219.49,4071.28,3555.9,4429.74,4442.56,4749.74,4503.08,4752.82,4400.51,4409.74,4069.74,1654,1692,3.875,0,0,0,0,
54,4640.51,4115.9,4591.28,4226.15,4059.49,3555.9,4426.15,4433.85,4746.15,4476.92,4740,4386.15,4389.23,4055.9,1653,1693,3.884,0,0,0,0,
55,4624.1,4124.1,4580.51,4250.77,4058.97,3556.41,4426.67,4435.38,4744.1,4470.77,4746.15,4377.95,4395.38,4038.97,1654,1694,3.892,0,0,0,0,
56,4616.92,4120.51,4583.59,4224.1,4069.74,3560,4429.74,4445.13,4754.36,4493.85,4749.74,4378.97,4407.69,4020,1654,1694,3.899,0,0,0,0,
57,4584.1,4068.72,4573.85,4202.56,4052.82,3557.44,4422.56,4436.41,4752.31,4492.82,4707.18,4370.26,4377.95,3996.92,1654,1692,3.907,0,0,0,0,
58,4544.62,4053.33,4552.82,4231.79,4044.62,3557.95,4421.03,4432.31,4744.62,4482.05,4686.15,4361.54,4351.28,3977.44,1653,1693,3.914,0,0,0,0,
59,4524.1,4099.49,4548.21,4242.56,4070.77,3560.51,4429.74,4443.59,4749.74,4489.74,4711.79,4361.03,4349.74,3989.23,1655,1691,3.922,0,0,0,0,
60,4512.82,4111.79,4550.26,4226.15,4077.44,3557.95,4430.77,4445.13,4758.46,4493.33,4726.15,4357.44,4363.59,3987.69,1653,1689,3.93,0,0,0,0,
61,4520,4056.41,4554.36,4187.18,4056.41,3563.59,4428.21,4441.54,4755.9,4488.21,4717.44,4351.79,4372.31,3946.67,1655,1689,3.939,0,0,0,0,
62,4515.9,4024.62,4555.9,4167.18,4049.74,3571.79,4433.85,4443.59,4755.38,4488.21,4703.59,4349.23,4357.44,3920,1654,1688,3.947,0,0,0,0,
63,4479.49,4068.21,4540.51,4216.92,4060.51,3565.13,4438.46,4447.69,4767.69,4492.31,4709.23,4350.77,4362.05,3913.33,1654,1689,3.955,0,0,0,0,
64,4464.1,4080.51,4537.44,4233.85,4064.1,3554.36,4432.31,4445.64,4767.69,4494.87,4724.1,4354.36,4381.03,3917.44,1654,1688,3.962,0,0,0,0,
65,4481.54,4026.67,4555.38,4179.49,4043.59,3560,4428.21,4441.54,4756.41,4495.38,4700,4359.49,4352.31,3951.28,1654,1690,3.97,0,0,0,0,
66,4477.95,4036.41,4551.28,4182.05,4037.95,3571.79,4438.46,4452.31,4769.23,4502.05,4684.1,4362.56,4334.87,3962.56,1655,1689,3.978,0,0,0,0,
67,4449.74,4091.28,4518.97,4226.67,4061.54,3575.9,4443.59,4459.49,4783.08,4508.72,4715.38,4345.13,4378.97,3893.33,1654,1689,3.985,0,0,0,0,
68,4437.44,4052.31,4516.41,4192.82,4065.64,3573.33,4431.79,4447.69,4770.77,4512.82,4721.03,4320.51,4384.62,3856.92,1654,1689,3.994,0,0,0,0,
69,4437.95,3999.49,4532.31,4168.72,4042.05,3573.33,4425.13,4440,4758.46,4507.18,4687.69,4327.69,4332.82,3912.31,1655,1689,4.001,0,0,0,0,
70,4439.49,4003.59,4529.74,4184.62,4022.05,3571.28,4427.69,4438.46,4751.79,4484.62,4679.49,4338.46,4319.49,3935.9,1656,1688,4.009,0,0,0,0,
71,4438.97,4002.56,4531.28,4162.05,4033.33,3560,4427.18,4437.95,4754.36,4476.41,4688.72,4327.69,4352.31,3885.13,1655,1688,4.016,0,0,0,0,
72,4433.85,4003.59,4530.26,4172.31,4053.33,3556.92,4427.69,4444.1,4766.67,4492.31,4678.97,4322.56,4352.82,3863.59,1656,1689,4.025,0,0,0,0,
73,4424.62,3998.97,4512.31,4204.1,4047.18,3568.21,4431.79,4447.18,4763.08,4491.79,4675.38,4325.64,4324.62,3890.26,1656,1687,4.033,0,0,0,0,
74,4420,3980,4506.15,4178.46,4034.36,3572.82,4432.82,4442.05,4754.87,4480.51,4686.15,4327.18,4328.72,3896.92,1655,1690,4.041,0,0,0,0,
75,4417.44,4010.26,4511.28,4158.46,4050.26,3569.23,4432.82,4445.64,4760,4487.18,4695.38,4331.79,4348.21,3885.13,1656,1689,4.048,0,0,0,0,
76,4414.36,4038.97,4508.72,4190.26,4057.44,3570.26,4429.23,4445.64,4759.49,4495.9,4695.9,4330.26,4345.64,3890.26,1654,1692,4.056,0,0,0,0,
77,4426.67,3973.33,4513.85,4192.31,4035.38,3572.31,4428.72,4441.03,4756.41,4500,4690.26,4326.67,4346.15,3896.41,1655,1692,4.064,0,0,0,0,
78,4434.87,3936.41,4526.67,4167.18,4038.46,3572.31,4438.97,4452.82,4770.77,4510.26,4683.08,4329.74,4362.05,3888.72,1654,1693,4.072,0,0,0,0,
79,4425.64,4007.18,4525.64,4175.9,4055.38,3573.85,4442.05,4460,4774.87,4507.18,4684.1,4342.05,4354.36,3904.62,1654,1695,4.08,0,0,0,0,
80,4412.82,4017.44,4514.87,4174.36,4046.15,3574.36,4428.72,4446.67,4757.44,4494.87,4691.79,4340.51,4334.87,3913.85,1654,1694,4.088,0,0,0,0,
81,4411.28,3930.26,4506.67,4158.97,4036.41,3572.31,4421.54,4436.41,4751.79,4482.05,4676.41,4317.95,4328.21,3874.87,1654,1693,4.095,0,0,0,0,
82,4411.79,3915.38,4511.28,4157.44,4038.46,3571.79,4427.18,4441.54,4762.05,4472.82,4652.31,4309.74,4318.97,3854.36,1654,1691,4.103,0,0,0,0,
83,4393.33,3980,4510.26,4162.05,4039.49,3573.85,4427.69,4444.1,4766.67,4486.15,4661.54,4318.97,4323.08,3876.92,1654,1690,4.11,0,0,0,0,
84,4380,3993.33,4496.92,4166.15,4039.49,3575.38,4425.64,4441.54,4762.05,4505.13,4678.97,4324.1,4332.31,3904.1,1654,1689,4.119,0,0,0,0,
85,4401.03,3970.26,4504.1,4170.77,4035.38,3574.87,4432.82,4450.26,4771.28,4505.64,4680,4334.36,4337.44,3917.44,1655,1691,4.127,0,0,0,0,
86,4418.46,3983.08,4517.44,4184.62,4025.13,3572.82,4443.59,4462.56,4782.56,4505.64,4688.72,4345.64,4354.36,3890.77,1654,1692,4.134,0,0,0,0,
87,4420,3965.13,4514.87,4178.46,4031.28,3573.85,4447.18,4464.1,4778.46,4515.38,4702.05,4346.15,4364.1,3863.08,1655,1694,4.141,0,0,0,0,
88,4432.31,3900,4524.1,4118.97,4024.62,3573.85,4434.87,4448.21,4761.54,4507.69,4680,4336.92,4331.79,3888.21,1654,1694,4.15,0,0,0,0,
89,4426.67,3918.97,4520.51,4108.21,4005.13,3574.36,4427.18,4437.95,4754.36,4489.23,4650.77,4323.08,4316.41,3900,1655,1695,4.158,0,0,0,0,
90,4399.49,3987.18,4483.59,4181.03,4020.51,3576.41,4440,4449.74,4766.15,4486.67,4662.56,4322.05,4334.87,3890.26,1654,1694,4.166,0,0,0,0,
91,4390.26,3988.72,4467.69,4228.21,4050.26,3574.87,4444.1,4452.82,4773.33,4497.44,4676.92,4324.1,4336.41,3875.38,1655,1694,4.174,0,0,0,0,
92,4398.97,3963.59,4485.13,4204.1,4051.28,3574.87,4432.82,4441.54,4767.69,4503.59,4665.13,4309.23,4331.28,3837.44,1655,1692,4.18,0,0,0,0,
93,4407.69,3957.44,4503.08,4162.05,4034.87,3576.41,4435.9,4447.18,4765.64,4495.38,4661.03,4319.49,4320,3871.79,1655,1692,4.189,0,0,0,0,
94,4414.87,3959.49,4511.28,4149.23,4025.64,3574.87,4446.15,4461.03,4773.33,4489.74,4676.41,4349.74,4318.97,3937.44,1657,1688,4.196,0,0,0,0,
95,4408.21,3974.36,4503.59,4159.49,4022.05,3572.82,4439.49,4453.85,4780.51,4497.95,4675.9,4333.85,4344.1,3878.97,1655,1689,4.205,0,0,0,0,
96,4410.26,3966.15,4491.79,4171.79,4024.1,3575.38,4434.36,4444.62,4779.49,4510.26,4660,4310.26,4348.21,3828.21,1656,1689,4.212,0,0,0,0,
97,4418.46,3938.97,4492.82,4166.67,4031.28,3574.36,4432.31,4444.62,4761.54,4506.67,4667.69,4323.59,4327.69,3891.28,1655,1689,4.22,0,0,0,0,
98,4404.62,3976.41,4491.79,4174.87,4044.1,3570.77,4428.72,4440,4747.69,4496.41,4690.77,4331.28,4344.1,3907.18,1656,1692,4.228,0,0,0,0,
99,4418.46,4003.08,4493.33,4187.69,4048.21,3573.85,4436.92,4444.1,4760.51,4501.03,4683.08,4330.77,4368.72,3870.77,1655,1693,4.235,0,0,0,0,
100,4449.23,3935.38,4509.23,4148.72,4024.1,3574.87,4444.62,4455.38,4768.72,4501.54,4654.36,4337.44,4345.13,3876.92,1656,1694,4.244,0,0,0,0,
101,4433.85,3925.13,4515.38,4128.21,4026.15,3570.77,4442.56,4458.97,4767.18,4490.26,4655.38,4344.62,4320,3904.62,1656,1694,4.251,0,0,0,0,
102,4405.13,3998.97,4498.46,4156.41,4051.79,3575.38,4441.54,4456.41,4767.69,4489.23,4671.28,4341.54,4324.62,3915.9,1656,1696,4.26,0,0,0,0,
103,4407.69,3985.13,4490.26,4160.51,4038.97,3586.15,4443.59,4453.85,4764.62,4495.9,4665.64,4322.56,4339.49,3880,1656,1694,4.266,0,0,0,0,
104,4421.03,3929.23,4497.44,4146.15,4026.67,3592.31,4445.13,4460,4771.28,4494.36,4663.59,4323.59,4349.74,3855.38,1655,1694,4.275,0,0,0,0,
105,4411.28,3948.72,4488.72,4145.13,4036.92,3583.59,4442.56,4460,4780.51,4492.82,4669.74,4333.85,4345.13,3880,1657,1691,4.282,0,0,0,0,
106,4391.28,3974.36,4474.36,4144.62,4031.28,3574.87,4438.46,4448.72,4771.79,4493.85,4653.33,4317.44,4327.18,3882.56,1655,1690,4.29,0,0,0,0,
107,4391.79,3957.44,4484.62,4144.62,4017.44,3579.49,4440,4446.15,4762.05,4490.77,4636.92,4310.77,4313.33,3863.59,1656,1690,4.299,0,0,0,0,
108,4421.03,3953.85,4507.69,4145.64,4026.15,3582.56,4444.1,4449.74,4766.15,4491.79,4652.31,4333.85,4325.13,3873.33,1655,1689,4.306,0,0,0,0,
109,4447.69,3958.46,4515.9,4147.69,4032.31,3575.38,4443.08,4449.23,4767.69,4494.87,4677.95,4344.1,4348.72,3887.18,1655,1691,4.314,0,0,0,0,
110,4440,3941.54,4508.21,4148.21,4016.92,3569.74,4437.95,4445.13,4758.46,4491.79,4674.87,4329.74,4351.28,3881.03,1654,1691,4.321,0,0,0,0,
111,4414.36,3953.33,4493.85,4150.77,4016.41,3577.95,4436.41,4441.54,4747.18,4488.72,4661.54,4326.67,4338.46,3892.82,1654,1693,4.329,0,0,0,0,
112,4408.72,3972.31,4486.15,4145.64,4037.95,3585.64,4438.97,4445.64,4750.26,4491.28,4662.05,4332.82,4335.9,3909.23,1654,1693,4.337,0,0,0,0,
113,4430.26,3961.03,4496.92,4151.28,4056.41,3588.21,4445.64,4459.49,4768.21,4495.38,4661.03,4336.92,4328.21,3902.56,1654,1694,4.345,0,0,0,0,
114,4433.33,3964.1,4496.41,4164.62,4045.13,3585.64,4446.15,4462.56,4772.31,4494.36,4653.85,4332.82,4312.82,3881.54,1655,1693,4.352,0,0,0,0,
115,4402.05,3964.62,4475.9,4141.54,4008.21,3575.38,4435.9,4450.26,4761.54,4488.21,4661.54,4313.33,4324.62,3853.85,1654,1694,4.36,0,0,0,0,
116,4395.38,3931.79,4475.38,4121.54,4002.05,3573.33,4433.33,4453.85,4767.18,4491.79,4669.74,4314.87,4348.72,3853.85,1656,1693,4.369,0,0,0,0,
117,4418.97,3926.67,4497.95,4138.46,4030.77,3576.41,4440.51,4461.03,4779.49,4501.03,4655.38,4336.92,4337.44,3874.87,1654,1693,4.376,0,0,0,0,
118,4416.41,3982.56,4493.85,4161.03,4045.64,3577.44,4444.62,4461.54,4784.62,4507.69,4653.33,4336.92,4326.67,3882.05,1656,1693,4.384,0,0,0,0,
119,4393.33,4004.62,4469.74,4161.54,4029.23,3576.41,4442.56,4463.08,4785.64,4505.64,4671.28,4322.56,4337.44,3873.85,1656,1691,4.391,0,0,0,0,
120,4400.51,3944.62,4483.08,4136.41,4012.31,3573.85,4435.38,4454.87,4770.26,4491.28,4669.74,4323.08,4329.74,3880,1655,1691,4.4,0,0,0,0,
121,4413.33,3916.92,4503.59,4116.92,4008.72,3576.41,4429.74,4441.54,4754.36,4486.67,4657.95,4325.13,4324.62,3881.54,1656,1690,4.407,0,0,0,0,
122,4414.36,3948.72,4493.85,4117.95,4013.85,3586.67,4437.44,4449.23,4764.62,4501.03,4662.56,4326.15,4345.64,3863.59,1656,1691,4.415,0,0,0,0,
123,4422.56,3969.74,4489.23,4135.38,4018.46,3587.69,4443.08,4458.97,4771.79,4500,4667.18,4332.31,4343.08,3855.9,1656,1692,4.424,0,0,0,0,
124,4423.08,3971.79,4496.92,4148.72,4009.23,3576.92,4437.44,4452.31,4763.08,4489.23,4663.08,4328.21,4330.26,3865.13,1655,1693,4.431,0,0,0,0,
125,4419.49,3955.9,4496.92,4142.56,4001.54,3574.36,4435.9,4452.82,4768.21,4504.1,4665.64,4331.79,4338.97,3893.33,1655,1692,4.439,0,0,0,0,
126,4415.9,3937.95,4492.82,4137.95,4000.51,3573.85,4433.85,4454.87,4776.41,4511.28,4666.67,4336.92,4338.46,3897.95,1654,1693,4.446,0,0,0,0,
127,4412.31,3966.67,4501.54,4142.05,4009.23,3574.36,4434.87,4452.31,4776.92,4490.26,4668.21,4333.85,4327.18,3881.54,1654,1693,4.454,0,0,0,0,
128,4423.59,3996.92,4506.15,4160.51,4025.13,3586.15,4443.08,4456.92,4779.49,4485.64,4661.03,4341.54,4323.08,3891.28,1653,1693,4.462,0,0,0,0,
0,4437.95,3958.97,4493.33,4167.69,4027.69,3592.31,4441.03,4456.41,4774.87,4501.03,4642.56,4348.72,4319.49,3920,1654,1693,4.47,0,0,0,0,
1,4423.59,3936.41,4488.21,4131.79,4021.54,3589.74,4437.44,4446.67,4763.08,4495.38,4652.82,4333.33,4327.18,3914.36,1653,1691,4.478,0,0,0,0,
2,4412.31,3961.03,4503.59,4106.15,4020,3591.79,4443.59,4446.15,4762.56,4477.95,4676.92,4315.9,4345.64,3866.15,1653,1691,4.485,0,0,0,0,
3,4428.72,3970.26,4510.77,4134.87,4020.51,3585.13,4439.49,4443.59,4764.62,4477.44,4661.54,4318.46,4330.77,3844.1,1654,1689,4.494,0,0,0,0,
4,4423.08,3982.05,4494.87,4189.23,4025.64,3577.95,4434.87,4445.13,4763.59,4493.33,4639.49,4334.36,4313.33,3883.59,1653,1689,4.501,0,0,0,0,
5,4415.9,3974.87,4489.74,4178.46,4019.49,3582.56,4441.54,4458.46,4766.67,4504.62,4658.46,4342.56,4335.38,3913.85,1654,1689,4.51,0,0,0,0,
6,4423.08,3935.38,4493.85,4118.97,4000.51,3578.97,4435.38,4453.85,4765.13,4494.87,4677.44,4328.21,4350.77,3885.64,1654,1690,4.518,0,0,0,0,
7,4425.64,3927.69,4491.79,4119.49,4000,3572.82,4424.62,4441.54,4764.62,4480.51,4660,4323.59,4330.77,3877.44,1654,1691,4.525,0,0,0,0,
8,4424.1,3943.08,4494.87,4138.46,4004.1,3575.38,4427.18,4446.67,4765.13,4474.36,4631.28,4341.03,4302.56,3916.92,1654,1691,4.533,0,0,0,0,
9,4412.31,3947.69,4482.56,4116.92,3995.9,3573.85,4429.23,4448.21,4762.05,4476.41,4633.85,4337.44,4302.56,3896.41,1655,1692,4.54,0,0,0,0,
10,4412.31,3951.79,4469.74,4125.64,4003.59,3576.92,4426.67,4442.05,4760.51,4484.62,4658.97,4320.51,4323.59,3836.92,1654,1693,4.549,0,0,0,0,
11,4426.67,3961.03,4488.72,4175.9,4025.64,3586.15,4430.77,4451.28,4766.67,4490.77,4663.08,4325.64,4335.9,3860.51,1655,1692,4.557,0,0,0,0,
12,4424.1,3969.74,4505.13,4157.95,4029.74,3581.54,4436.92,4459.49,4774.36,4494.36,4655.9,4336.92,4334.87,3904.1,1656,1692,4.565,0,0,0,0,
13,4417.95,3949.23,4498.46,4100,4021.54,3577.95,4439.49,4449.23,4768.72,4491.28,4664.62,4333.85,4331.79,3891.28,1656,1690,4.571,0,0,0,0,
14,4437.95,3925.13,4501.03,4115.9,4020,3588.72,4440,4444.1,4762.56,4491.28,4668.72,4336.92,4327.69,3889.74,1655,1690,4.58,0,0,0,0,
15,4436.41,3952.31,4503.08,4147.69,4019.49,3590.26,4437.95,4446.15,4764.62,4491.28,4649.23,4337.95,4322.56,3884.62,1655,1689,4.588,0,0,0,0,
16,4400,3979.49,4484.1,4139.49,4021.03,3586.15,4438.97,4444.1,4764.62,4491.28,4645.64,4324.62,4334.36,3846.15,1654,1690,4.595,0,0,0,0,
17,4413.85,3949.74,4488.21,4135.9,4024.62,3587.69,4446.15,4452.82,4768.21,4498.46,4669.23,4335.38,4348.21,3876.41,1654,1690,4.604,0,0,0,0,
18,4446.15,3927.18,4512.82,4131.79,4014.87,3587.18,4443.08,4462.05,4772.31,4497.95,4671.79,4356.92,4338.46,3920,1652,1691,4.611,0,0,0,0,
19,4428.72,3960,4501.54,4129.23,3997.95,3585.13,4428.72,4450.77,4760.51,4488.21,4654.87,4345.13,4325.64,3876.41,1654,1692,4.619,0,0,0,0,
20,4414.87,3978.46,4482.05,4151.79,4007.69,3587.69,4431.79,4442.05,4754.87,4486.15,4662.56,4337.44,4340,3863.08,1653,1691,4.626,0,0,0,0,
21,4421.54,3960,4489.23,4151.28,4023.08,3587.18,4441.54,4447.69,4766.15,4491.28,4667.69,4346.15,4343.08,3894.87,1653,1692,4.635,0,0,0,0,
22,4415.9,3942.56,4495.38,4104.62,4011.28,3578.97,4431.28,4445.64,4761.03,4488.72,4644.62,4333.85,4324.62,3873.85,1655,1691,4.642,0,0,0,0,
23,4422.05,3940.51,4494.36,4106.67,4009.74,3573.33,4423.08,4434.87,4745.13,4490.77,4642.05,4329.74,4319.49,3876.92,1654,1692,4.651,0,0,0,0,
24,4430.77,3935.38,4490.77,4138.46,4018.46,3574.36,4427.69,4429.23,4746.15,4490.26,4652.31,4340,4318.46,3902.56,1655,1691,4.658,0,0,0,0,
25,4408.21,3946.67,4478.97,4120,4012.31,3578.97,4426.67,4426.15,4751.79,4473.33,4638.46,4319.49,4310.26,3874.87,1656,1692,4.666,0,0,0,0,
26,4404.1,3964.62,4479.49,4118.97,4009.74,3584.62,4428.21,4429.23,4750.77,4474.87,4628.72,4308.21,4316.92,3855.9,1656,1691,4.674,0,0,0,0,
27,4421.54,3950.77,4487.69,4151.28,4009.23,3588.21,4433.85,4438.46,4748.21,4492.31,4632.31,4330.77,4322.56,3879.49,1655,1692,4.681,0,0,0,0,
28,4415.9,3947.18,4481.03,4141.03,4003.59,3586.15,4430.77,4443.59,4755.9,4491.28,4635.9,4338.46,4315.9,3894.87,1656,1692,4.69,0,0,0,0,
29,4423.08,3960.51,4487.18,4123.08,4008.72,3583.59,4434.87,4443.59,4767.69,4484.62,4649.74,4327.69,4326.67,3881.03,1654,1692,4.696,0,0,0,0,
30,4427.69,3968.21,4492.82,4140,4015.38,3584.62,4441.54,4446.15,4761.03,4494.87,4661.54,4328.21,4341.54,3861.54,1655,1693,4.705,0,0,0,0,
31,4411.28,3958.46,4474.87,4151.28,4005.64,3587.69,4432.82,4444.62,4746.15,4494.36,4646.15,4329.23,4327.18,3864.62,1654,1694,4.713,0,0,0,0,
32,4431.28,3922.05,4482.56,4132.31,4000.51,3587.18,4426.15,4436.41,4746.15,4475.9,4629.74,4326.15,4312.82,3879.49,1655,1695,4.721,0,0,0,0,
33,4456.92,3933.33,4512.31,4117.44,4009.74,3586.15,4436.41,4435.9,4749.74,4470.26,4634.87,4337.44,4308.21,3906.67,1656,1693,4.729,0,0,0,0,
34,4424.62,4000.51,4497.95,4126.15,4011.28,3589.23,4439.49,4440.51,4746.67,4477.44,4631.28,4347.18,4299.49,3932.82,1656,1692,4.736,0,0,0,0,
35,4397.44,3987.69,4469.23,4140,4007.69,3590.26,4428.72,4433.33,4747.18,4475.9,4618.97,4330.26,4306.15,3897.44,1658,1691,4.744,0,0,0,0,
36,4422.56,3909.74,4481.03,4140.51,4017.95,3587.18,4424.62,4424.1,4749.23,4478.97,4621.54,4306.15,4336.92,3821.03,1657,1689,4.751,0,0,0,0,
37,4430.77,3935.38,4493.85,4138.97,4031.28,3588.72,4430.77,4432.82,4746.15,4494.36,4632.31,4311.28,4345.64,3829.23,1659,1690,4.76,0,0,0,0,
38,4416.41,4005.13,4485.64,4139.49,4018.97,3589.23,4437.95,4444.1,4748.72,4493.85,4635.38,4337.95,4321.03,3891.79,1658,1689,4.768,0,0,0,0,
39,4417.44,3990.26,4482.56,4137.44,4001.54,3578.97,4437.44,4443.59,4759.49,4487.69,4641.03,4341.54,4326.15,3891.28,1657,1690,4.776,0,0,0,0,
40,4434.36,3943.59,4489.74,4137.44,4002.56,3571.79,4431.28,4444.62,4765.64,4500,4649.74,4332.31,4350.77,3878.46,1656,1690,4.782,0,0,0,0,
41,4441.54,3946.15,4492.82,4137.44,4000,3580.51,4429.74,4445.64,4756.41,4502.05,4640,4335.38,4329.74,3901.54,1656,1690,4.79,0,0,0,0,
42,4429.74,3973.33,4488.21,4133.85,4002.05,3590.77,4435.38,4435.38,4745.64,4487.69,4626.15,4336.92,4311.79,3901.54,1655,1689,4.799,0,0,0,0,
43,4424.62,3965.13,4489.74,4126.67,4013.33,3591.28,4439.49,4432.82,4747.18,4487.69,4627.69,4322.05,4332.31,3870.26,1653,1691,4.806,0,0,0,0,
44,4428.21,3950.26,4486.15,4133.33,4013.33,3587.69,4440.51,4440,4744.62,4492.31,4623.59,4317.95,4333.33,3870.26,1654,1690,4.814,0,0,0,0,
45,4429.23,3972.31,4476.92,4159.49,4011.28,3590.26,4442.05,4438.46,4736.92,4486.15,4621.03,4337.95,4323.08,3894.36,1652,1692,4.822,0,0,0,0,
46,4419.49,3990.26,4476.92,4158.46,4022.05,3592.31,4439.49,4436.41,4740.51,4485.64,4634.87,4335.9,4341.03,3871.28,1653,1692,4.829,0,0,0,0,
47,4404.62,3966.15,4469.74,4122.56,4011.28,3581.03,4428.72,4428.72,4737.95,4483.59,4626.67,4309.23,4327.69,3862.56,1652,1693,4.838,0,0,0,0,
48,4409.74,3935.38,4462.56,4114.36,3982.05,3569.23,4422.56,4418.97,4725.13,4466.67,4605.13,4308.72,4294.87,3892.82,1654,1693,4.845,0,0,0,0,
49,4434.87,3934.36,4480,4132.31,3994.36,3575.9,4430.26,4430.77,4732.31,4473.33,4618.46,4339.49,4317.44,3901.54,1653,1693,4.854,0,0,0,0,
50,4440.51,3967.69,4492.82,4138.46,4032.31,3589.23,4444.1,4451.28,4753.33,4503.59,4635.38,4351.28,4346.15,3884.1,1654,1693,4.861,0,0,0,0,
51,4430.77,3969.74,4483.59,4140,4028.21,3590.26,4445.13,4449.74,4757.44,4506.15,4625.64,4332.82,4337.95,3869.74,1654,1693,4.868,0,0,0,0,
52,4441.54,3923.59,4490.26,4124.62,3992.82,3585.64,4432.82,4439.49,4744.1,4481.54,4615.9,4327.69,4315.38,3900,1654,1693,4.876,0,0,0,0,
53,4439.49,3938.97,4492.31,4109.74,3993.85,3585.13,4427.18,4442.05,4739.49,4485.64,4611.79,4339.49,4310.26,3926.15,1653,1692,4.885,0,0,0,0,
54,4420.51,3996.92,4474.36,4132.82,4021.54,3592.82,4434.36,4447.69,4747.69,4500.51,4614.87,4339.49,4332.82,3897.95,1653,1693,4.892,0,0,0,0,
55,4423.59,3993.85,4475.9,4153.33,4020,3592.82,4433.33,4440,4736.92,4477.44,4623.59,4326.67,4333.85,3871.79,1655,1691,4.9,0,0,0,0,
56,4431.79,3953.33,4480,4134.87,3998.97,3575.38,4421.03,4422.05,4711.79,4453.85,4610.26,4323.59,4299.49,3894.36,1654,1692,4.908,0,0,0,0,
57,4426.15,3946.15,4468.72,4130.77,3999.49,3571.28,4423.08,4424.1,4714.36,4463.59,4585.13,4332.82,4281.54,3916.92,1655,1692,4.915,0,0,0,0,
58,4433.85,3945.64,4486.15,4135.38,4013.33,3588.72,4437.95,4446.15,4743.08,4479.49,4594.36,4343.59,4307.18,3912.82,1656,1690,4.924,0,0,0,0,
59,4428.72,3939.49,4497.95,4110.26,3992.82,3591.28,4435.38,4442.56,4742.05,4478.97,4611.28,4330.77,4325.13,3885.13,1657,1690,4.931,0,0,0,0,
60,4414.36,3943.08,4471.79,4103.59,3968.72,3583.59,4424.1,4423.08,4715.9,4467.18,4597.44,4306.67,4307.18,3849.23,1657,1689,4.94,0,0,0,0,
61,4427.18,3957.44,4465.13,4126.67,3983.08,3588.72,4432.31,4431.79,4720.51,4476.92,4593.33,4320,4303.59,3861.54,1658,1690,4.948,0,0,0,0,
62,4432.31,3982.05,4478.97,4142.05,4000,3587.69,4444.62,4452.31,4750.77,4495.9,4609.74,4337.95,4326.15,3884.62,1658,1690,4.954,0,0,0,0,
63,4430.26,3964.1,4481.03,4139.49,4004.62,3588.72,4443.08,4453.33,4756.41,4492.82,4610.26,4331.79,4323.08,3890.77,1658,1692,4.962,0,0,0,0,
64,4440.51,3936.92,4484.1,4111.79,4010.77,3602.05,4441.54,4443.59,4733.85,4481.54,4599.49,4330.26,4295.9,3899.49,1657,1693,4.97,0,0,0,0,
65,4436.41,3970.77,4490.77,4104.1,4001.54,3600,4444.62,4442.05,4728.21,4480,4592.31,4341.03,4286.15,3904.62,1655,1695,4.979,0,0,0,0,
66,4436.41,3976.41,4492.82,4139.49,3986.15,3593.33,4444.62,4446.15,4738.46,4475.38,4586.67,4350.77,4295.9,3912.82,1653,1694,4.986,0,0,0,0,
67,4441.54,3921.54,4489.74,4136.92,3997.44,3602.05,4442.56,4444.1,4735.9,4476.92,4597.95,4340.51,4318.46,3886.67,1654,1694,4.994,0,0,0,0,
68,4420.51,3928.72,4473.85,4094.36,4000,3606.15,4449.74,4444.62,4733.85,4491.28,4611.79,4323.59,4331.79,3839.49,1653,1693,5.001,0,0,0,0,
69,4410.26,3972.82,4465.64,4108.72,3987.18,3601.03,4457.44,4454.87,4746.15,4492.31,4608.21,4332.31,4320,3861.03,1654,1693,5.009,0,0,0,0,
70,4427.69,3956.41,4480.51,4145.13,4001.03,3599.49,4453.85,4461.54,4753.33,4491.28,4617.44,4351.28,4330.26,3909.74,1653,1691,5.017,0,0,0,0,
71,4429.23,3937.95,4476.92,4131.28,4011.79,3601.54,4450.77,4456.41,4747.18,4496.41,4622.05,4348.72,4341.03,3896.41,1653,1693,5.026,0,0,0,0,
72,4417.44,3946.67,4457.44,4116.41,3998.46,3602.56,4455.38,4455.38,4749.23,4493.33,4605.13,4341.03,4321.54,3883.59,1653,1691,5.034,0,0,0,0,
73,4407.69,3942.56,4455.38,4123.08,3995.38,3595.9,4451.79,4459.49,4752.31,4490.26,4606.67,4335.9,4324.62,3890.26,1653,1692,5.041,0,0,0,0,
74,4397.95,3934.87,4455.38,4118.46,3996.92,3591.28,4445.13,4454.36,4738.97,4486.67,4611.79,4318.97,4329.74,3864.1,1654,1690,5.049,0,0,0,0,
75,4408.21,3947.18,4456.41,4121.03,3997.44,3602.05,4456.41,4455.9,4741.54,4494.87,4603.08,4322.05,4310.77,3861.03,1652,1692,5.057,0,0,0,0,
76,4420.51,3954.36,4467.18,4123.08,4006.15,3609.74,4466.15,4464.62,4754.87,4508.72,4594.36,4338.97,4307.18,3891.79,1655,1692,5.065,0,0,0,0,
77,4413.85,3932.31,4460,4104.62,3996.92,3602.05,4455.38,4454.87,4738.46,4491.28,4590.26,4331.79,4306.15,3887.18,1655,1693,5.072,0,0,0,0,
78,4428.72,3902.05,4459.49,4094.87,3984.62,3600.51,4451.79,4449.74,4734.87,4477.95,4598.97,4340.51,4301.54,3888.21,1656,1694,5.081,0,0,0,0,
79,4447.69,3907.18,4486.67,4091.79,3998.46,3606.67,4462.05,4468.21,4767.18,4504.62,4606.67,4368.21,4317.95,3906.15,1657,1694,5.087,0,0,0,0,
80,4431.79,3950.26,4489.74,4095.9,4009.23,3605.64,4464.1,4470.77,4770.77,4514.36,4601.54,4359.49,4328.21,3905.64,1658,1694,5.095,0,0,0,0,
81,4423.08,3956.41,4469.23,4126.67,4006.15,3605.64,4457.95,4455.38,4747.18,4499.49,4607.69,4331.28,4331.28,3900.51,1658,1693,5.104,0,0,0,0,
82,4439.49,3928.72,4469.23,4134.87,4006.15,3611.28,4460,4458.46,4750.77,4510.77,4626.15,4335.9,4343.59,3899.49,1659,1693,5.112,0,0,0,0,
83,4442.56,3933.85,4470.26,4123.59,4007.69,3612.82,4465.13,4464.1,4758.46,4514.36,4610.26,4350.26,4328.21,3897.95,1659,1691,5.12,0,0,0,0,
84,4431.28,3961.03,4467.18,4128.72,4004.1,3607.69,4460.51,4460.51,4745.64,4492.31,4588.72,4345.64,4302.56,3910.77,1656,1690,5.127,0,0,0,0,
85,4439.49,3956.41,4487.69,4121.54,3995.9,3604.62,4460.51,4472.31,4750.26,4500,4606.67,4353.85,4325.64,3909.23,1657,1689,5.134,0,0,0,0,
86,4457.95,3924.1,4496.41,4112.31,3990.77,3603.08,4462.56,4479.49,4766.67,4516.92,4613.33,4371.28,4342.56,3910.77,1655,1689,5.142,0,0,0,0,
87,4446.15,3934.36,4468.21,4109.74,3990.26,3600.51,4453.85,4462.56,4759.49,4503.59,4597.44,4365.64,4320,3950.77,1656,1689,5.151,0,0,0,0,
88,4418.97,3966.15,4452.82,4093.33,3993.85,3600.51,4443.08,4455.38,4747.18,4497.95,4602.56,4342.05,4325.64,3923.08,1654,1690,5.159,0,0,0,0,
89,4426.67,3934.36,4466.67,4088.72,4010.26,3603.59,4442.56,4459.49,4751.79,4512.82,4616.92,4330.26,4346.67,3851.79,1654,1692,5.166,0,0,0,0,
90,4435.9,3912.31,4469.74,4114.36,4018.97,3604.62,4443.08,4449.23,4751.79,4512.82,4606.67,4334.87,4331.28,3866.67,1654,1691,5.174,0,0,0,0,
91,4402.56,3968.21,4446.15,4132.82,4003.08,3602.05,4440,4442.05,4744.62,4503.08,4592.31,4329.23,4322.56,3884.1,1652,1692,5.182,0,0,0,0,
92,4388.72,3998.97,4434.87,4139.49,4003.08,3602.05,4447.69,4455.9,4750.26,4506.67,4602.56,4328.72,4343.59,3860,1653,1693,5.19,0,0,0,0,
93,4421.03,3963.08,4448.21,4143.08,4018.97,3604.62,4456.92,4464.1,4755.38,4511.28,4611.79,4345.13,4345.64,3878.46,1653,1693,5.198,0,0,0,0,
94,4435.38,3938.97,4458.97,4121.54,4001.54,3602.05,4456.41,4458.46,4746.67,4504.62,4604.1,4355.9,4329.23,3910.77,1653,1693,5.205,0,0,0,0,
95,4436.92,3928.21,4471.28,4107.69,3987.69,3603.59,4456.92,4458.97,4746.67,4504.62,4600,4352.31,4333.85,3898.46,1652,1693,5.214,0,0,0,0,
96,4440,3939.49,4474.36,4117.44,4004.62,3609.74,4460.51,4464.62,4759.49,4510.26,4603.59,4343.59,4338.46,3893.85,1654,1692,5.221,0,0,0,0,
97,4426.15,3980.51,4453.33,4132.82,4013.85,3608.72,4457.95,4464.1,4764.1,4506.67,4600.51,4342.05,4336.41,3902.05,1653,1691,5.229,0,0,0,0,
98,4425.64,3972.82,4453.33,4126.67,4010.77,3606.15,4459.49,4465.13,4756.41,4506.15,4597.44,4350.77,4338.46,3893.33,1654,1691,5.237,0,0,0,0,
99,4427.18,3928.72,4465.13,4091.28,3990.26,3605.64,4456.41,4459.49,4745.64,4502.05,4595.9,4340.51,4325.13,3874.87,1654,1689,5.245,0,0,0,0,
100,4408.21,3919.49,4445.13,4079.49,3975.9,3604.62,4446.67,4448.21,4740.51,4484.1,4583.59,4318.46,4305.13,3865.13,1654,1690,5.252,0,0,0,0,
101,4413.85,3928.72,4443.08,4105.64,4003.08,3606.67,4451.79,4451.79,4742.05,4471.28,4575.9,4326.67,4304.62,3876.92,1655,1688,5.26,0,0,0,0,
102,4437.44,3936.92,4467.69,4132.82,4027.69,3606.67,4462.56,4461.54,4748.21,4478.46,4581.03,4342.05,4311.79,3884.62,1655,1690,5.267,0,0,0,0,
103,4423.08,3955.38,4452.82,4126.67,4011.79,3602.56,4459.49,4461.03,4750.26,4487.69,4577.44,4336.92,4309.74,3876.92,1656,1688,5.276,0,0,0,0,
104,4413.85,3941.54,4438.46,4110.77,3997.44,3602.56,4456.41,4465.64,4745.13,4486.67,4583.59,4341.54,4315.9,3889.23,1655,1690,5.284,0,0,0,0,
105,4441.03,3899.49,4462.05,4116.41,4009.23,3607.18,4462.56,4476.92,4755.38,4494.87,4604.1,4356.92,4332.82,3906.15,1657,1689,5.291,0,0,0,0,
106,4440,3921.54,4460.51,4116.92,4010.77,3609.23,4463.08,4479.49,4766.15,4506.67,4595.38,4356.41,4329.23,3900.51,1656,1690,5.299,0,0,0,0,
107,4418.97,3971.79,4438.46,4106.15,3996.41,3609.74,4462.56,4474.87,4755.38,4501.54,4581.54,4347.18,4313.85,3890.26,1656,1691,5.306,0,0,0,0,
108,4427.69,3935.38,4452.31,4095.38,3981.54,3606.67,4458.97,4467.18,4742.56,4486.67,4594.36,4345.13,4316.41,3890.77,1655,1691,5.314,0,0,0,0,
109,4428.72,3902.05,4459.49,4097.44,3987.18,3600.51,4448.21,4463.08,4746.15,4484.62,4597.95,4341.03,4332.31,3878.46,1656,1691,5.322,0,0,0,0,
110,4425.13,3944.62,4445.13,4109.23,4012.82,3603.59,4450.26,4473.33,4757.95,4495.9,4585.13,4349.74,4322.56,3889.23,1654,1690,5.33,0,0,0,0,
111,4444.1,3948.72,4455.9,4099.49,4011.79,3604.1,4457.44,4472.31,4751.79,4491.79,4587.69,4367.69,4299.49,3936.92,1654,1692,5.339,0,0,0,0,
112,4438.46,3920.51,4467.18,4088.72,3994.87,3597.44,4447.69,4452.82,4729.23,4475.9,4584.1,4360.51,4311.79,3928.72,1654,1690,5.346,0,0,0,0,
113,4412.82,3942.56,4449.23,4112.31,4004.62,3597.44,4437.95,4449.23,4722.56,4474.36,4570.26,4336.41,4338.97,3861.03,1653,1692,5.354,0,0,0,0,
114,4427.18,3961.03,4432.82,4138.97,4020,3604.1,4447.18,4459.49,4741.54,4488.21,4581.03,4337.44,4336.92,3854.87,1654,1692,5.362,0,0,0,0,
115,4451.28,3949.23,4445.13,4115.38,4009.74,3605.64,4456.41,4463.08,4750.77,4499.49,4598.97,4356.92,4330.26,3910.77,1654,1692,5.369,0,0,0,0,
116,4447.69,3933.85,4461.03,4076.92,3991.28,3599.49,4448.72,4461.03,4744.1,4503.08,4602.56,4357.95,4342.56,3922.05,1654,1693,5.377,0,0,0,0,
117,4435.9,3920,4455.9,4088.72,3993.33,3595.9,4445.64,4460.51,4747.69,4505.64,4594.36,4352.82,4344.1,3890.26,1654,1693,5.385,0,0,0,0,
118,4424.62,3953.85,4440,4132.31,4016.41,3602.56,4456.41,4463.08,4757.44,4510.77,4591.28,4360.51,4335.38,3891.28,1654,1692,5.392,0,0,0,0,
119,4429.23,3976.92,4438.97,4120.51,4024.62,3604.62,4460,4466.15,4759.49,4511.79,4600,4358.97,4341.54,3905.13,1653,1692,5.4,0,0,0,0,
120,4437.44,3936.92,4450.26,4071.28,4002.56,3594.87,4445.13,4460.51,4752.31,4499.49,4597.95,4342.56,4344.1,3900,1654,1693,5.408,0,0,0,0,
121,4428.21,3935.9,4445.64,4095.9,4000.51,3596.41,4444.62,4457.44,4751.79,4496.92,4585.13,4338.46,4339.49,3890.77,1653,1693,5.416,0,0,0,0,
122,4432.82,3974.36,4441.03,4140.51,4023.59,3609.23,4457.95,4466.15,4756.92,4506.67,4584.1,4351.79,4338.97,3896.41,1654,1693,5.425,0,0,0,0,
123,4440,3971.28,4444.62,4110.77,4019.49,3608.21,4451.28,4461.54,4747.18,4487.69,4583.59,4351.28,4326.67,3895.38,1654,1693,5.431,0,0,0,0,
124,4433.85,3949.23,4441.03,4088.21,4001.03,3602.56,4439.49,4446.15,4741.03,4467.18,4569.74,4336.92,4308.21,3888.21,1655,1692,5.44,0,0,0,0,
125,4434.36,3939.49,4442.56,4100.51,4001.54,3601.03,4442.56,4443.59,4744.1,4480.51,4565.13,4337.44,4313.33,3897.44,1655,1692,5.447,0,0,0,0,
126,4440,3942.56,4446.67,4106.67,4020.51,3603.08,4446.67,4447.18,4736.41,4492.31,4572.31,4345.64,4328.21,3902.56,1657,1690,5.455,0,0,0,0,
127,4435.38,3952.31,4434.36,4098.46,4025.64,3604.1,4439.49,4443.59,4729.74,4487.69,4571.79,4335.38,4329.23,3886.67,1655,1691,5.464,0,0,0,0,
128,4427.18,3948.21,4420.51,4074.36,3998.97,3593.33,4430.77,4438.46,4733.85,4482.56,4565.13,4325.13,4322.05,3887.69,1656,1693,5.471,0,0,0,0,
0,4426.67,3957.95,4427.18,4080,3990.77,3583.08,4430.26,4441.54,4731.79,4474.36,4566.15,4342.56,4315.38,3909.74,1655,1692,5.479,0,0,0,0,
1,4433.33,3969.74,4431.79,4118.46,4015.38,3592.82,4434.36,4445.64,4733.85,4477.95,4577.44,4353.85,4322.05,3914.87,1655,1694,5.486,0,0,0,0,
2,4440,3946.15,4424.62,4115.38,4014.87,3604.1,4437.44,4443.08,4748.21,4489.23,4577.44,4337.44,4329.74,3908.72,1654,1694,5.495,0,0,0,0,
3,4441.54,3955.38,4427.18,4098.97,4007.69,3603.08,4440.51,4447.18,4752.31,4494.36,4563.08,4340,4323.59,3905.64,1653,1695,5.503,0,0,0,0,
4,4445.64,3987.69,4441.03,4107.18,4027.69,3601.03,4444.62,4459.49,4746.67,4503.08,4572.31,4357.44,4331.79,3893.33,1655,1694,5.51,0,0,0,0,
5,4449.74,3949.23,4448.21,4082.05,4030.77,3602.05,4443.08,4453.85,4745.13,4508.21,4588.21,4346.15,4344.1,3896.41,1653,1693,5.517,0,0,0,0,
6,4446.67,3925.13,4437.44,4073.33,4020.51,3603.59,4441.54,4442.56,4746.67,4494.87,4576.92,4334.87,4331.28,3907.69,1654,1692,5.525,0,0,0,0,
7,4449.23,3976.92,4428.21,4119.49,4029.23,3603.59,4444.1,4453.33,4749.74,4489.23,4575.9,4345.64,4325.64,3901.54,1654,1691,5.534,0,0,0,0,
8,4445.64,3984.1,4431.28,4117.44,4025.64,3603.59,4444.1,4461.54,4750.77,4496.92,4589.74,4346.67,4340,3892.82,1655,1690,5.542,0,0,0,0,
9,4434.36,3954.36,4427.69,4094.36,4017.44,3612.82,4445.64,4455.9,4749.74,4491.79,4575.9,4338.97,4328.72,3891.79,1654,1690,5.549,0,0,0,0,
10,4437.95,3967.69,4424.62,4104.1,4023.59,3616.92,4445.64,4454.87,4746.67,4487.69,4563.59,4348.21,4309.74,3896.41,1656,1691,5.557,0,0,0,0,
11,4458.97,3970.26,4447.18,4096.92,4026.67,3606.15,4443.59,4458.97,4744.62,4502.56,4585.64,4366.15,4332.31,3925.64,1656,1690,5.565,0,0,0,0,
12,4481.03,3954.87,4466.15,4097.44,4027.18,3603.59,4452.31,4464.62,4757.95,4513.85,4596.41,4377.44,4354.36,3938.46,1656,1693,5.572,0,0,0,0,
13,4478.97,3975.9,4451.28,4128.21,4029.23,3608.72,4460,4466.15,4766.67,4508.21,4582.05,4377.44,4345.13,3918.46,1657,1692,5.58,0,0,0,0,
14,4461.03,3992.82,4439.49,4122.05,4025.64,3605.13,4452.31,4458.97,4756.41,4505.64,4582.56,4367.18,4332.31,3918.46,1656,1693,5.588,0,0,0,0,
15,4454.36,3971.79,4442.05,4082.56,4016.41,3608.21,4448.21,4453.85,4753.85,4509.23,4585.13,4357.44,4327.18,3917.44,1657,1693,5.597,0,0,0,0,
16,4462.56,3966.15,4446.15,4080,4025.64,3615.38,4459.49,4460.51,4767.69,4507.69,4581.54,4363.08,4327.18,3911.28,1654,1693,5.604,0,0,0,0,
17,4465.13,3977.44,4448.72,4108.21,4045.64,3608.21,4459.49,4462.05,4765.13,4505.64,4586.15,4368.72,4335.9,3926.15,1654,1693,5.64,0,0,0,0,
18,4446.15,3971.28,4431.79,4114.36,4029.74,3602.05,4447.18,4454.87,4752.82,4498.46,4579.49,4353.33,4336.41,3910.77,1654,1693,5.645,0,0,0,0,
19,4435.38,3968.21,4413.85,4098.46,4012.82,3612.82,4450.26,4460,4762.05,4498.46,4562.05,4349.23,4324.1,3876.41,1653,1692,5.645,0,0,0,0,
20,4449.23,3977.95,4426.67,4100.51,4046.67,3621.03,4460.51,4473.85,4770.77,4515.9,4572.82,4364.1,4331.79,3892.31,1653,1691,5.645,0,0,0,0,
21,4463.59,3975.9,4447.69,4113.85,4069.23,3618.97,4461.54,4475.38,4768.72,4520,4594.87,4366.15,4348.72,3927.69,1653,1690,5.646,0,0,0,0,
22,4461.03,3969.74,4444.62,4105.13,4045.13,3620.51,4459.49,4465.13,4766.15,4506.15,4590.26,4361.54,4340.51,3932.82,1653,1689,5.651,0,0,0,0,
23,4455.9,3984.1,4430.26,4103.59,4037.44,3623.08,4455.38,4457.44,4758.97,4502.56,4580,4357.95,4334.36,3912.82,1653,1690,5.659,0,0,0,0,
24,4459.49,3997.44,4426.67,4122.05,4047.69,3620.51,4447.69,4457.44,4749.74,4509.74,4580,4352.31,4343.59,3892.82,1655,1690,5.667,0,0,0,0,
25,4446.67,3990.26,4427.18,4120,4045.64,3620.51,4443.59,4454.36,4748.21,4506.15,4572.31,4349.23,4337.44,3883.08,1655,1691,5.675,0,0,0,0,
26,4437.95,3980.51,4425.13,4105.13,4049.23,3621.03,4446.15,4449.74,4748.21,4495.38,4564.1,4348.21,4325.13,3889.23,1657,1692,5.683,0,0,0,0,
27,4464.62,3970.77,4429.74,4105.13,4049.23,3611.79,4447.18,4452.31,4746.15,4485.13,4568.72,4352.82,4322.56,3925.64,1657,1693,5.691,0,0,0,0,
28,4474.87,3977.44,4433.33,4107.69,4040.51,3603.59,4447.69,4458.46,4757.95,4494.36,4571.28,4362.05,4328.21,3936.41,1658,1694,5.697,0,0,0,0,
29,4438.97,3997.95,4423.08,4104.1,4043.08,3606.67,4453.33,4464.62,4767.69,4510.26,4565.13,4357.95,4338.46,3890.77,1658,1693,5.705,0,0,0,0,
30,4444.62,3966.67,4430.77,4102.05,4053.33,3615.38,4459.49,4471.28,4767.69,4507.69,4570.77,4351.79,4344.62,3880.51,1657,1694,5.714,0,0,0,0,
31,4483.59,3944.1,4448.21,4106.67,4058.46,3621.54,4461.54,4477.95,4769.74,4514.36,4587.18,4367.69,4344.62,3920.51,1656,1692,5.721,0,0,0,0,
32,4463.08,3998.97,4429.74,4117.44,4059.49,3623.59,4460.51,4475.38,4773.85,4527.18,4592.31,4372.82,4349.23,3913.85,1656,1693,5.729,0,0,0,0,
33,4439.49,4026.67,4414.36,4125.13,4061.54,3623.08,4463.08,4477.44,4779.49,4520.51,4582.56,4367.69,4347.69,3904.1,1655,1691,5.736,0,0,0,0,
34,4463.59,3980.51,4432.31,4106.15,4058.46,3622.56,4464.62,4477.95,4774.87,4505.13,4575.9,4370.77,4334.87,3925.13,1654,1692,5.745,0,0,0,0,
35,4466.67,3961.54,4436.41,4087.69,4048.72,3620.51,4459.49,4462.05,4754.36,4501.03,4573.33,4363.59,4339.49,3911.28,1656,1691,5.752,0,0,0,0,
36,4450.77,3990.77,4423.59,4105.13,4050.77,3618.97,4458.46,4460,4751.79,4512.82,4562.05,4355.9,4348.72,3886.67,1653,1692,5.76,0,0,0,0,
37,4452.82,3986.67,4423.08,4109.74,4061.54,3621.54,4461.03,4473.85,4768.21,4516.41,4549.74,4362.05,4332.82,3891.28,1655,1694,5.769,0,0,0,0,
38,4461.54,3953.33,4426.67,4093.33,4059.49,3621.54,4461.03,4476.92,4767.69,4503.08,4559.49,4371.28,4323.59,3915.38,1654,1694,5.777,0,0,0,0,
39,4472.31,3952.31,4437.44,4094.36,4055.9,3618.97,4458.46,4472.31,4758.97,4500,4581.54,4370.77,4347.69,3923.59,1654,1695,5.784,0,0,0,0,
40,4472.82,3986.67,4446.15,4103.08,4064.1,3618.46,4459.49,4476.41,4766.67,4512.31,4582.05,4368.72,4361.54,3915.38,1655,1694,5.791,0,0,0,0,
41,4452.31,4001.03,4424.1,4103.59,4059.49,3621.54,4461.03,4477.44,4771.79,4511.79,4565.13,4366.67,4345.13,3905.13,1655,1694,5.799,0,0,0,0,
42,4438.97,3973.85,4408.72,4095.9,4044.62,3622.56,4461.03,4472.82,4766.15,4502.05,4556.92,4354.87,4330.77,3894.36,1656,1691,5.807,0,0,0,0,
43,4449.74,3957.44,4427.18,4084.1,4050.26,3621.54,4459.49,4470.77,4763.08,4510.26,4553.33,4350.77,4326.15,3901.54,1655,1691,5.815,0,0,0,0,
44,4458.46,3965.64,4425.64,4084.1,4061.54,3624.62,4461.54,4475.38,4773.33,4522.05,4554.36,4364.1,4332.82,3916.41,1656,1690,5.824,0,0,0,0,
45,4449.23,3985.64,4401.54,4096.92,4061.03,3625.64,4467.69,4484.62,4783.59,4525.64,4564.1,4369.23,4353.33,3901.03,1656,1691,5.831,0,0,0,0,
46,4442.56,3983.59,4411.28,4088.21,4059.49,3624.1,4466.67,4483.08,4775.9,4527.69,4564.62,4355.38,4356.41,3870.26,1656,1691,5.839,0,0,0,0,
47,4448.21,3968.21,4429.23,4082.05,4059.49,3623.59,4461.03,4473.85,4763.59,4522.56,4563.59,4353.33,4337.95,3892.82,1656,1689,5.846,0,0,0,0,
48,4456.92,3972.82,4417.44,4098.46,4055.38,3621.54,4460,4471.28,4761.54,4506.15,4566.15,4367.18,4332.82,3934.36,1657,1688,5.854,0,0,0,0,
49,4458.46,3986.15,4407.69,4106.67,4070.26,3624.62,4461.54,4475.9,4767.18,4510.26,4557.95,4369.23,4344.62,3920.51,1656,1688,5.862,0,0,0,0,
50,4454.36,3997.95,4411.28,4103.59,4088.21,3637.95,4462.05,4476.92,4770.26,4529.23,4550.77,4360,4353.33,3877.44,1657,1688,5.87,0,0,0,0,
51,4452.82,3971.28,4412.82,4072.82,4058.46,3641.03,4458.97,4465.13,4756.41,4509.74,4554.36,4348.21,4346.67,3881.03,1656,1689,5.877,0,0,0,0,
52,4454.87,3957.44,4416.41,4056.41,4022.56,3625.13,4458.46,4455.9,4746.15,4488.72,4553.85,4347.18,4335.9,3907.69,1655,1690,5.885,0,0,0,0,
53,4464.62,3986.67,4424.1,4095.9,4047.18,3619.49,4465.13,4471.28,4765.13,4519.49,4551.28,4361.54,4343.08,3897.44,1654,1693,5.894,0,0,0,0,
54,4462.56,3983.59,4422.56,4119.49,4079.49,3625.13,4468.72,4484.62,4773.85,4538.46,4562.05,4369.74,4357.44,3901.54,1654,1694,5.901,0,0,0,0,
55,4446.67,3974.87,4412.31,4101.03,4071.28,3623.08,4460.51,4469.23,4756.41,4513.33,4561.03,4363.59,4350.77,3931.28,1652,1695,5.909,0,0,0,0,
56,4445.13,4015.9,4406.67,4101.03,4061.03,3618.97,4456.41,4456.92,4752.31,4503.59,4543.59,4351.28,4335.9,3904.62,1653,1696,5.916,0,0,0,0,
57,4450.26,4021.54,4404.1,4110.26,4065.13,3620.51,4458.46,4459.49,4755.9,4509.23,4534.87,4343.08,4327.18,3857.95,1652,1693,5.925,0,0,0,0,
58,4445.13,3979.49,4401.03,4097.44,4069.74,3622.56,4457.44,4458.97,4748.72,4498.46,4535.9,4339.49,4322.56,3860,1653,1693,5.933,0,0,0,0,
59,4447.18,3982.56,4410.26,4089.74,4074.87,3624.1,4458.97,4455.9,4748.21,4486.67,4536.92,4340,4323.08,3886.15,1654,1689,5.941,0,0,0,0,
60,4461.03,3992.82,4417.95,4092.31,4061.54,3621.54,4454.36,4452.31,4751.79,4489.23,4534.36,4341.03,4325.13,3898.97,1654,1689,5.949,0,0,0,0,
61,4457.95,3989.23,4404.1,4100,4049.74,3618.97,4442.56,4451.79,4750.77,4502.56,4535.38,4341.03,4325.13,3893.85,1655,1689,5.955,0,0,0,0,
62,4452.31,4006.67,4395.9,4110.26,4067.69,3624.62,4446.15,4455.38,4749.23,4503.59,4537.44,4343.59,4324.1,3893.85,1655,1690,5.964,0,0,0,0,
63,4453.33,3992.31,4409.23,4104.1,4074.36,3626.15,4458.46,4463.08,4754.36,4496.92,4541.54,4351.79,4329.74,3888.21,1656,1691,5.971,0,0,0,0,
64,4446.15,3984.62,4414.36,4094.87,4061.54,3620.51,4463.59,4473.33,4765.64,4508.72,4551.79,4363.59,4335.9,3881.03,1655,1692,5.979,0,0,0,0,
65,4450.77,4005.13,4411.79,4091.79,4059.49,3627.18,4462.56,4475.38,4764.1,4510.26,4553.85,4362.05,4334.36,3894.36,1656,1693,5.987,0,0,0,0,
66,4465.13,3984.1,4410.77,4093.85,4055.9,3638.46,4462.05,4462.56,4748.72,4485.13,4544.1,4343.59,4328.21,3886.67,1654,1693,5.995,0,0,0,0,
67,4456.92,3967.69,4400,4098.97,4048.72,3628.72,4460.51,4458.46,4750.26,4483.08,4535.9,4337.95,4324.62,3858.97,1655,1693,6.002,0,0,0,0,
68,4453.33,3987.18,4395.9,4102.56,4057.44,3616.92,4461.03,4467.69,4762.56,4502.05,4540,4346.67,4328.72,3883.59,1654,1691,6.01,0,0,0,0,
69,4468.21,3985.64,4407.18,4095.38,4064.1,3624.1,4464.62,4470.26,4761.54,4497.44,4541.54,4350.77,4322.56,3921.03,1654,1692,6.018,0,0,0,0,
70,4455.9,3972.82,4408.21,4076.41,4051.28,3626.67,4459.49,4460,4747.18,4482.56,4530.26,4340,4308.21,3890.26,1655,1689,6.026,0,0,0,0,
71,4433.33,3979.49,4394.36,4068.21,4047.69,3621.03,4449.23,4446.67,4732.82,4473.33,4518.97,4326.15,4311.79,3857.44,1654,1690,6.035,0,0,0,0,
72,4446.15,3979.49,4394.36,4084.62,4064.62,3625.64,4450.26,4447.18,4737.95,4474.36,4525.13,4325.13,4331.28,3857.95,1655,1689,6.041,0,0,0,0,
73,4464.1,3975.9,4408.72,4100.51,4072.82,3635.9,4460.51,4461.03,4756.41,4486.15,4539.49,4338.46,4331.79,3867.18,1655,1689,6.049,0,0,0,0,
74,4461.54,3986.67,4412.31,4096.92,4060,3635.38,4461.03,4461.54,4754.36,4485.64,4538.97,4349.74,4317.44,3885.13,1655,1689,6.057,0,0,0,0,
75,4456.92,3989.23,4403.59,4087.69,4045.64,3627.69,4454.87,4453.85,4742.05,4482.56,4535.9,4347.18,4326.15,3893.33,1655,1689,6.066,0,0,0,0,
76,4456.92,3991.79,4405.13,4085.64,4049.23,3621.03,4456.41,4462.05,4753.33,4498.97,4542.56,4351.79,4336.41,3902.56,1655,1689,6.074,0,0,0,0,
77,4463.08,3996.41,4414.87,4083.08,4058.46,3621.54,4464.1,4475.38,4770.77,4509.74,4542.56,4362.56,4331.79,3907.18,1654,1690,6.081,0,0,0,0,
78,4473.33,3977.44,4416.41,4091.28,4054.87,3628.21,4466.15,4476.41,4765.13,4503.59,4536.41,4361.03,4331.28,3887.69,1654,1691,6.088,0,0,0,0,
79,4462.56,3974.36,4409.74,4106.15,4049.74,3633.85,4462.56,4472.82,4754.87,4506.15,4536.41,4353.85,4335.9,3881.54,1653,1691,6.096,0,0,0,0,
80,4454.87,4007.69,4407.69,4106.67,4056.92,3633.33,4460,4471.79,4759.49,4507.69,4541.54,4353.33,4339.49,3890.77,1653,1694,6.105,0,0,0,0,
81,4477.95,4012.31,4416.41,4093.33,4062.56,3627.18,4461.03,4472.31,4765.13,4491.79,4540,4361.03,4330.77,3905.64,1654,1693,6.112,0,0,0,0,
82,4480,3982.05,4417.95,4088.72,4058.46,3627.18,4462.05,4475.9,4764.62,4490.77,4535.38,4369.23,4318.46,3933.33,1653,1694,6.121,0,0,0,0,
83,4453.85,3983.08,4408.72,4093.33,4060.51,3636.41,4463.59,4476.41,4766.67,4505.13,4535.9,4363.08,4326.67,3918.97,1655,1692,6.127,0,0,0,0,
84,4442.56,4006.67,4402.05,4093.33,4069.74,3638.46,4462.56,4464.62,4761.03,4496.41,4539.49,4340,4341.54,3857.44,1654,1692,6.135,0,0,0,0,
85,4445.64,4001.54,4398.97,4093.85,4069.23,3632.82,4456.92,4452.31,4746.15,4489.74,4536.41,4328.72,4329.23,3851.79,1656,1692,6.144,0,0,0,0,
86,4452.31,3993.33,4398.97,4095.9,4060,3633.85,4457.95,4458.97,4749.23,4503.08,4534.36,4344.62,4317.44,3893.85,1655,1692,6.152,0,0,0,0,
87,4454.36,3996.41,4401.03,4090.26,4050.77,3635.38,4465.64,4467.18,4763.08,4501.54,4537.95,4346.15,4336.41,3896.92,1657,1692,6.159,0,0,0,0,
88,4460,3972.82,4409.23,4084.62,4043.08,3625.64,4464.1,4460,4764.1,4486.67,4538.97,4338.46,4338.97,3889.74,1656,1692,6.168,0,0,0,0,
89,4468.21,3958.97,4412.31,4089.23,4041.03,3618.46,4459.49,4460.51,4762.05,4487.18,4533.85,4349.74,4318.97,3891.79,1656,1692,6.175,0,0,0,0,
90,4465.13,3990.77,4403.59,4095.9,4045.64,3621.54,4461.54,4474.87,4768.21,4502.56,4538.97,4356.41,4334.36,3882.05,1656,1690,6.182,0,0,0,0,
91,4453.33,4006.67,4402.05,4092.82,4051.79,3624.62,4461.54,4473.85,4769.74,4507.69,4547.18,4352.82,4354.36,3898.46,1656,1691,6.19,0,0,0,0,
92,4457.44,3990.26,4410.77,4097.95,4051.28,3621.54,4456.41,4458.97,4762.56,4492.82,4541.54,4358.46,4331.79,3926.15,1656,1689,6.198,0,0,0,0,
93,4474.36,3993.85,4417.95,4104.62,4049.23,3618.97,4457.44,4457.44,4761.54,4491.28,4537.95,4355.38,4327.18,3899.49,1654,1692,6.206,0,0,0,0,
94,4470.26,3990.26,4411.79,4094.87,4053.85,3625.64,4460,4461.03,4763.59,4509.23,4540.51,4340.51,4345.13,3871.28,1656,1693,6.214,0,0,0,0,
95,4453.85,3990.26,4395.38,4102.56,4063.08,3634.36,4457.95,4457.95,4757.95,4503.59,4534.36,4347.69,4327.18,3896.41,1653,1693,6.222,0,0,0,0,
96,4448.21,4025.13,4387.18,4115.38,4070.77,3636.92,4465.64,4463.59,4760,4485.13,4532.31,4354.87,4324.1,3894.36,1654,1694,6.229,0,0,0,0,
97,4460.51,4004.62,4397.95,4096.92,4059.49,3635.9,4474.87,4471.28,4766.67,4489.74,4541.54,4340.51,4351.79,3864.1,1654,1693,6.237,0,0,0,0,
98,4462.56,3967.18,4404.1,4094.36,4049.74,3634.87,4472.31,4468.72,4764.62,4499.49,4540.51,4343.08,4337.95,3880,1654,1692,6.245,0,0,0,0,
99,4447.18,4007.18,4394.87,4121.03,4060.51,3636.92,4472.31,4472.82,4771.28,4508.72,4543.08,4359.49,4322.05,3903.59,1654,1690,6.253,0,0,0,0,
100,4460.51,4015.9,4401.03,4103.08,4057.95,3635.38,4474.36,4480.51,4784.62,4513.85,4558.46,4366.15,4344.62,3903.59,1654,1691,6.26,0,0,0,0,
101,4475.9,3969.23,4416.92,4068.72,4035.38,3624.62,4462.56,4468.72,4773.85,4493.33,4548.72,4364.62,4333.85,3907.18,1654,1689,6.269,0,0,0,0,
102,4462.05,3972.82,4416.92,4092.82,4032.82,3618.46,4458.46,4458.46,4758.46,4481.54,4531.28,4361.03,4310.26,3909.23,1654,1690,6.276,0,0,0,0,
103,4453.33,3998.97,4401.54,4133.85,4051.28,3623.08,4470.77,4471.79,4771.79,4508.72,4545.13,4358.46,4335.38,3889.23,1653,1689,6.285,0,0,0,0,
104,4462.05,3986.67,4399.49,4118.97,4050.77,3623.59,4469.74,4475.9,4780,4523.08,4561.03,4355.9,4351.79,3881.03,1654,1689,6.292,0,0,0,0,
105,4457.44,3980,4411.28,4089.74,4035.9,3620,4457.95,4460.51,4768.21,4502.56,4548.72,4347.69,4337.95,3887.69,1654,1689,6.3,0,0,0,0,
106,4455.38,4004.1,4407.69,4111.79,4051.28,3623.59,4460.51,4456.41,4761.03,4495.38,4536.41,4347.18,4334.87,3893.85,1655,1690,6.307,0,0,0,0,
107,4479.49,3997.95,4404.1,4121.54,4070.77,3625.13,4462.05,4460.51,4762.56,4509.74,4543.08,4361.03,4340.51,3897.44,1654,1690,6.315,0,0,0,0,
108,4475.9,3975.9,4411.28,4093.85,4051.79,3620.51,4458.97,4460.51,4769.23,4511.79,4541.03,4363.08,4328.72,3895.9,1655,1692,6.324,0,0,0,0,
109,4456.92,3995.9,4414.36,4098.46,4045.64,3621.03,4469.74,4469.23,4781.03,4500.51,4536.92,4361.54,4321.03,3894.36,1654,1691,6.331,0,0,0,0,
110,4473.85,4011.79,4412.82,4118.97,4063.08,3624.1,4474.36,4474.36,4784.1,4497.44,4545.13,4368.72,4336.41,3906.15,1654,1694,6.34,0,0,0,0,
111,4482.05,3972.31,4406.67,4103.59,4048.72,3619.49,4463.08,4462.56,4770.26,4503.08,4537.44,4367.69,4335.38,3913.85,1655,1692,6.347,0,0,0,0,
112,4458.97,3959.49,4390.26,4086.67,4032.82,3619.49,4455.9,4454.36,4761.03,4507.69,4515.9,4350.26,4311.28,3896.41,1653,1694,6.355,0,0,0,0,
113,4458.97,3992.82,4390.77,4088.72,4052.82,3630.77,4458.46,4458.46,4772.82,4499.49,4526.15,4341.03,4310.26,3893.85,1655,1694,6.363,0,0,0,0,
114,4476.41,3982.56,4411.79,4088.72,4055.9,3629.23,4467.69,4463.08,4784.1,4485.64,4552.82,4356.41,4340,3914.87,1653,1694,6.37,0,0,0,0,
115,4471.79,3967.18,4407.18,4107.18,4046.15,3626.15,4469.74,4461.03,4774.36,4486.15,4554.87,4362.05,4344.62,3908.21,1655,1694,6.379,0,0,0,0,
116,4469.23,3986.15,4390.26,4112.31,4062.05,3633.33,4463.59,4457.95,4765.64,4492.31,4534.36,4349.74,4316.92,3887.18,1654,1692,6.387,0,0,0,0,
117,4458.46,4002.05,4387.69,4081.54,4062.05,3629.23,4463.08,4459.49,4778.46,4491.28,4518.97,4346.15,4311.79,3884.1,1654,1691,6.394,0,0,0,0,
118,4427.18,4002.56,4383.59,4082.05,4036.92,3620.51,4465.64,4460,4788.72,4495.38,4530.77,4346.67,4330.77,3883.08,1654,1691,6.401,0,0,0,0,
119,4434.87,3995.9,4388.72,4115.9,4036.41,3624.62,4461.03,4457.44,4777.95,4510.77,4553.33,4337.44,4348.72,3872.82,1655,1693,6.409,0,0,0,0,
120,4474.87,3988.72,4405.13,4107.69,4055.38,3626.15,4464.1,4457.95,4766.15,4508.21,4545.13,4348.21,4333.85,3899.49,1655,1692,6.417,0,0,0,0,
121,4476.41,3973.85,4401.03,4077.44,4057.95,3618.97,4471.79,4460.51,4771.28,4488.72,4525.64,4370.77,4307.69,3948.72,1655,1695,6.425,0,0,0,0,
122,4442.56,3982.56,4379.49,4086.15,4049.74,3622.56,4467.18,4461.03,4778.46,4490.26,4536.92,4356.92,4320,3926.15,1656,1694,6.432,0,0,0,0,
123,4426.67,3995.38,4379.49,4089.23,4046.15,3624.62,4460,4457.44,4770.26,4494.36,4542.05,4329.23,4339.49,3864.62,1655,1695,6.441,0,0,0,0,
124,4433.33,3980.51,4384.62,4076.41,4047.69,3620.51,4458.97,4452.31,4757.95,4480,4526.67,4325.13,4331.79,3868.72,1656,1695,6.449,0,0,0,0,
125,4440.51,3977.95,4377.95,4088.21,4049.23,3629.23,4467.69,4455.9,4765.64,4485.13,4532.31,4340.51,4323.59,3921.03,1655,1693,6.456,0,0,0,0,
126,4447.18,3993.85,4384.1,4092.82,4048.21,3640,4478.46,4464.62,4775.9,4508.72,4544.62,4353.85,4332.82,3935.9,1655,1694,6.465,0,0,0,0,
127,4448.21,3977.44,4388.21,4071.28,4045.13,3630.77,4468.72,4461.03,4768.72,4509.74,4540.51,4345.64,4335.38,3910.26,1655,1692,6.472,0,0,0,0,
128,4435.38,3968.72,4374.36,4073.85,4048.72,3620.51,4456.41,4454.87,4761.54,4495.9,4544.62,4335.9,4325.64,3893.33,1654,1692,6.479,0,0,0,0,
0,4439.49,3994.36,4379.49,4081.54,4048.72,3623.59,4465.64,4460.51,4770.26,4492.31,4555.9,4352.31,4332.31,3901.54,1654,1691,6.488,0,0,0,0,
1,4463.08,3990.77,4404.1,4068.21,4041.54,3618.97,4469.23,4463.59,4770.77,4488.21,4555.38,4368.21,4348.72,3924.1,1654,1691,6.495,0,0,0,0,
2,4464.62,3987.18,4396.92,4087.69,4050.26,3621.54,4458.97,4458.46,4758.97,4487.18,4555.38,4356.41,4345.13,3923.59,1654,1690,6.504,0,0,0,0,
3,4453.85,3999.49,4379.49,4105.64,4061.54,3634.87,4458.46,4455.38,4760.51,4492.82,4551.79,4346.67,4327.69,3915.9,1654,1691,6.511,0,0,0,0,
4,4462.05,3979.49,4384.62,4083.59,4053.85,3628.21,4462.05,4455.38,4766.67,4492.31,4539.49,4347.69,4323.08,3912.82,1655,1690,6.519,0,0,0,0,
5,4462.56,3983.08,4386.15,4081.03,4042.56,3614.36,4458.97,4455.38,4761.54,4487.69,4536.92,4352.82,4317.95,3928.72,1653,1691,6.526,0,0,0,0,
6,4458.46,4024.1,4388.72,4091.79,4049.23,3618.97,4458.46,4457.95,4761.03,4490.77,4535.9,4368.21,4313.85,3949.74,1656,1692,6.534,0,0,0,0,
7,4473.85,3988.72,4403.08,4070.77,4054.87,3625.64,4461.54,4458.46,4763.08,4495.9,4535.38,4367.69,4334.87,3920,1655,1691,6.542,0,0,0,0,
8,4475.9,3935.38,4404.1,4052.82,4041.54,3617.95,4457.95,4457.44,4758.97,4492.82,4548.21,4349.23,4344.1,3884.62,1655,1693,6.55,0,0,0,0,
9,4461.54,3975.38,4389.74,4076.41,4043.08,3609.23,4452.82,4458.97,4762.05,4493.33,4553.85,4351.28,4324.62,3912.82,1655,1692,6.558,0,0,0,0,
10,4455.38,4013.33,4380,4097.44,4052.82,3611.79,4448.21,4456.41,4760.51,4489.74,4545.13,4361.54,4315.38,3953.85,1655,1692,6.565,0,0,0,0,
11,4453.33,3998.46,4379.49,4088.72,4042.05,3617.44,4443.59,4452.31,4752.82,4478.97,4544.62,4354.87,4324.1,3934.36,1656,1690,6.573,0,0,0,0,
12,4464.1,4008.72,4386.15,4077.95,4036.92,3621.03,4449.74,4461.03,4765.64,4488.72,4560.51,4358.97,4341.03,3909.74,1655,1690,6.581,0,0,0,0,
13,4471.28,3996.92,4387.18,4075.38,4040,3618.46,4454.87,4460.51,4766.15,4499.49,4557.44,4356.41,4341.54,3904.1,1655,1690,6.589,0,0,0,0,
14,4451.79,3934.87,4376.41,4063.59,4022.56,3613.33,4444.62,4437.95,4735.9,4475.9,4529.23,4330.26,4313.85,3889.23,1655,1690,6.597,0,0,0,0,
15,4440.51,3964.62,4374.87,4060,4026.15,3614.36,4438.97,4438.46,4733.85,4461.54,4522.56,4337.44,4303.59,3900.51,1655,1688,6.605,0,0,0,0,
16,4457.44,4038.97,4384.1,4073.85,4058.46,3622.56,4445.13,4459.49,4757.95,4479.49,4544.1,4366.67,4322.56,3929.23,1653,1689,6.612,0,0,0,0,
17,4472.82,4014.87,4392.82,4077.95,4063.08,3622.56,4445.13,4457.95,4753.85,4482.56,4553.33,4361.54,4320.51,3935.38,1654,1690,6.62,0,0,0,0,
18,4479.49,3988.72,4392.82,4085.64,4049.23,3617.44,4442.56,4451.28,4744.1,4470.77,4541.03,4348.21,4309.23,3910.26,1653,1691,6.629,0,0,0,0,
19,4474.36,4027.69,4381.03,4106.15,4046.15,3617.95,4444.62,4458.97,4752.31,4472.31,4526.15,4349.74,4309.23,3884.62,1653,1693,6.636,0,0,0,0,
20,4468.72,4054.36,4381.03,4109.74,4044.1,3618.46,4444.1,4460,4760.51,4475.9,4520,4346.15,4298.46,3887.18,1653,1693,6.644,0,0,0,0,
21,4496.41,4029.23,4399.49,4111.28,4052.31,3620,4452.82,4460,4765.64,4487.18,4536.41,4350.26,4297.44,3915.9,1652,1696,6.651,0,0,0,0,
22,4505.64,4017.95,4404.1,4102.05,4064.1,3621.54,4460.51,4464.62,4758.97,4495.9,4546.67,4358.46,4313.33,3915.38,1653,1695,6.659,0,0,0,0,
23,4477.95,4040.51,4389.23,4087.18,4059.49,3618.46,4449.74,4451.79,4742.56,4472.82,4524.62,4352.82,4300,3898.97,1653,1695,6.667,0,0,0,0,
24,4474.36,4052.31,4386.15,4101.54,4057.44,3618.97,4439.49,4438.46,4739.49,4459.49,4516.92,4348.21,4283.59,3908.72,1654,1694,6.675,0,0,0,0,
25,4484.1,4034.36,4397.95,4094.87,4062.05,3622.56,4445.64,4450.26,4752.31,4476.41,4536.41,4349.74,4303.08,3898.46,1654,1692,6.683,0,0,0,0,
26,4477.44,4033.33,4401.03,4086.67,4062.05,3621.03,4453.85,4463.59,4763.59,4482.05,4545.13,4346.15,4320,3872.31,1654,1690,6.691,0,0,0,0,
27,4472.82,4047.18,4385.64,4119.49,4057.44,3622.05,4450.26,4454.87,4759.49,4475.9,4534.36,4341.03,4306.67,3881.03,1655,1688,6.698,0,0,0,0,
28,4475.38,4029.23,4383.08,4111.79,4050.26,3625.64,4444.62,4443.08,4746.67,4476.41,4527.69,4340.51,4287.69,3903.08,1656,1688,6.706,0,0,0,0,
29,4480.51,4023.08,4399.49,4075.9,4055.38,3621.03,4442.56,4441.54,4737.95,4467.18,4532.82,4349.74,4281.03,3909.23,1656,1690,6.714,0,0,0,0,
30,4484.1,4054.87,4393.33,4102.05,4069.74,3615.38,4441.54,4445.64,4740.51,4461.54,4541.03,4358.97,4294.87,3909.23,1657,1690,6.722,0,0,0,0,
31,4478.46,4041.03,4378.97,4121.03,4063.08,3618.46,4447.18,4455.9,4753.33,4476.92,4541.03,4353.85,4314.87,3894.36,1656,1690,6.73,0,0,0,0,
32,4480,3998.97,4391.28,4091.79,4051.79,3623.08,4452.31,4463.59,4758.46,4482.05,4539.49,4352.31,4306.67,3894.36,1657,1690,6.737,0,0,0,0,
33,4487.69,4027.18,4396.92,4100.51,4061.54,3622.05,4447.18,4461.54,4751.79,4471.28,4540.51,4354.87,4290.77,3918.97,1656,1690,6.745,0,0,0,0,
34,4478.97,4046.15,4388.72,4108.72,4060.51,3618.97,4440.51,4457.44,4747.18,4471.28,4523.59,4350.26,4290.77,3910.26,1657,1690,6.754,0,0,0,0,
35,4473.85,3997.95,4389.74,4085.64,4050.26,3617.44,4446.15,4462.56,4753.33,4482.05,4516.41,4349.74,4296.92,3878.46,1655,1690,6.761,0,0,0,0,
36,4478.46,4005.13,4383.59,4084.62,4058.97,3619.49,4446.67,4462.05,4753.85,4477.44,4539.49,4345.64,4308.21,3872.82,1656,1690,6.77,0,0,0,0,
37,4459.49,4047.18,4371.28,4086.67,4057.44,3618.46,4438.97,4447.18,4742.56,4454.36,4538.97,4330.77,4304.1,3877.95,1655,1689,6.776,0,0,0,0,
38,4447.18,4021.54,4375.9,4086.15,4044.62,3608.72,4438.97,4437.95,4740,4446.67,4516.41,4333.85,4283.59,3876.92,1654,1689,6.784,0,0,0,0,
39,4472.31,3995.9,4387.18,4092.82,4046.67,3603.08,4439.49,4443.59,4747.18,4460,4524.62,4353.85,4277.95,3902.56,1655,1686,6.792,0,0,0,0,
40,4472.82,4025.64,4381.54,4085.13,4049.23,3606.15,4437.95,4444.62,4744.1,4460,4536.41,4349.23,4286.67,3906.67,1653,1686,6.8,0,0,0,0,
41,4449.23,4032.31,4369.74,4086.15,4050.26,3606.67,4439.49,4438.97,4729.74,4452.31,4517.95,4332.31,4285.13,3863.59,1655,1686,6.808,0,0,0,0,
42,4474.36,4008.72,4378.46,4105.13,4057.44,3606.15,4445.13,4449.74,4738.46,4467.18,4518.97,4340.51,4292.31,3863.59,1655,1687,6.817,0,0,0,0,
43,4510.26,4001.03,4406.15,4097.95,4049.23,3609.23,4447.69,4465.13,4756.41,4482.05,4538.46,4359.49,4309.74,3908.21,1656,1689,6.823,0,0,0,0,
44,4482.56,4024.62,4398.97,4088.21,4040.51,3604.62,4442.56,4457.95,4745.13,4476.41,4540.51,4360.51,4311.28,3917.44,1654,1691,6.831,0,0,0,0,
45,4453.33,4051.79,4370.77,4098.46,4057.44,3600,4441.54,4443.59,4733.85,4471.28,4538.97,4352.31,4308.21,3900.51,1656,1693,6.839,0,0,0,0,
46,4471.28,4038.46,4377.95,4090.26,4061.03,3605.64,4442.05,4445.64,4741.54,4468.72,4539.49,4349.23,4303.08,3891.79,1655,1693,6.847,0,0,0,0,
47,4471.79,3998.46,4385.64,4071.28,4037.44,3601.54,4432.31,4443.59,4736.41,4454.36,4524.1,4345.13,4284.62,3884.1,1656,1693,6.855,0,0,0,0,
48,4453.33,3986.15,4365.64,4078.97,4027.69,3592.82,4421.03,4432.31,4721.54,4452.31,4512.31,4336.92,4277.95,3876.92,1655,1693,6.863,0,0,0,0,
49,4460.51,4021.03,4361.03,4093.85,4045.64,3604.62,4431.79,4440.51,4733.33,4473.33,4526.15,4337.44,4300,3878.97,1655,1695,6.87,0,0,0,0,
50,4476.92,4055.38,4383.08,4101.03,4066.15,3616.92,4448.72,4464.1,4762.56,4484.62,4546.67,4352.31,4322.05,3884.62,1656,1692,6.878,0,0,0,0,
51,4478.97,4044.62,4389.23,4093.33,4062.05,3607.69,4447.18,4461.03,4763.59,4475.38,4540.51,4356.41,4314.87,3889.74,1654,1694,6.886,0,0,0,0,
52,4474.87,4016.92,4376.92,4074.36,4048.72,3602.56,4440,4444.1,4748.21,4476.41,4525.64,4339.49,4302.05,3879.49,1655,1692,6.895,0,0,0,0,
