COUNTER,AF3,F7,F3, FC5, T7, P7, O1, O2,P8, T8, FC6, F4,F8, AF4,GYROX, GYROY, TIMESTAMP, FUNC_ID, FUNC_VALUE, MARKER, SYNC_SIGNAL,
108,4401.03,4072.82,4571.28,4171.79,3936.92,3605.13,4448.72,4447.69,4736.92,4496.41,4552.82,4337.95,4285.13,3933.33,1655,1693,0.118,0,0,0,0,
109,4417.44,4054.36,4573.85,4160,3926.67,3601.54,4441.03,4444.62,4726.15,4492.31,4555.38,4325.13,4305.64,3925.64,1653,1694,0.126,0,0,0,0,
110,4427.69,4043.59,4587.18,4135.9,3920.51,3602.05,4441.54,4441.03,4716.92,4490.26,4554.87,4336.41,4289.74,3944.1,1655,1694,0.134,0,0,0,0,
111,4420,4064.62,4584.62,4146.15,3926.67,3605.64,4449.74,4443.08,4727.69,4490.77,4554.87,4344.1,4274.87,3952.31,1653,1693,0.142,0,0,0,0,
112,4418.46,4063.59,4581.03,4154.36,3929.23,3605.13,4453.85,4443.08,4736.92,4492.82,4553.85,4334.36,4285.64,3933.33,1654,1694,0.149,0,0,0,0,
113,4418.97,4053.33,4573.85,4152.31,3928.21,3605.13,4449.23,4440,4725.64,4485.13,4550.77,4329.74,4282.05,3942.56,1654,1691,0.157,0,0,0,0,
114,4410.77,4069.74,4553.33,4157.44,3928.72,3606.15,4445.13,4437.44,4717.95,4473.33,4550.77,4332.82,4272.82,3946.67,1654,1691,0.165,0,0,0,0,
115,4411.28,4069.74,4556.41,4144.62,3924.62,3602.56,4445.13,4436.41,4725.64,4481.03,4553.85,4334.36,4280,3921.03,1654,1689,0.173,0,0,0,0,
116,4414.36,4052.82,4571.79,4138.46,3923.59,3601.03,4443.08,4431.28,4723.08,4492.82,4552.31,4334.36,4281.54,3924.1,1654,1690,0.181,0,0,0,0,
117,4411.79,4061.54,4567.69,4156.41,3935.38,3605.64,4443.59,4431.28,4714.87,4488.21,4552.82,4330.77,4277.44,3947.18,1655,1691,0.188,0,0,0,0,
118,4422.56,4064.62,4567.18,4148.21,3944.62,3606.67,4445.13,4440,4719.49,4489.23,4562.05,4334.87,4285.64,3958.46,1654,1692,0.196,0,0,0,0,
119,4425.64,4053.85,4568.21,4133.33,3942.05,3604.1,4443.08,4442.05,4723.59,4496.92,4567.18,4344.1,4292.31,3954.87,1656,1693,0.204,0,0,0,0,
120,4417.44,4053.33,4556.41,4152.82,3943.08,3605.13,4443.59,4440.51,4718.97,4489.74,4563.59,4341.03,4285.13,3939.49,1655,1693,0.212,0,0,0,0,
121,4416.92,4054.87,4551.79,4163.08,3937.95,3606.67,4446.67,4442.05,4719.49,4484.1,4559.49,4329.74,4280.51,3923.59,1656,1694,0.22,0,0,0,0,
122,4412.31,4059.49,4554.87,4145.13,3924.62,3602.05,4445.13,4437.95,4721.54,4490.77,4555.38,4327.69,4274.36,3924.1,1653,1693,0.228,0,0,0,0,
123,4397.44,4063.59,4549.23,4146.15,3929.23,3600.51,4448.21,4434.87,4718.46,4490.26,4550.26,4332.82,4263.59,3930.26,1654,1693,0.235,0,0,0,0,
124,4401.54,4052.82,4548.21,4151.79,3944.1,3606.15,4457.95,4441.54,4722.05,4490.26,4558.46,4336.92,4274.36,3936.92,1653,1690,0.243,0,0,0,0,
125,4426.67,4044.62,4561.54,4144.1,3946.67,3610.26,4462.56,4446.67,4735.38,4504.1,4572.82,4343.08,4295.38,3948.72,1652,1691,0.251,0,0,0,0,
126,4424.62,4053.85,4557.44,4143.59,3941.03,3608.21,4458.97,4445.13,4739.49,4510.77,4567.18,4345.64,4291.28,3946.15,1653,1689,0.259,0,0,0,0,
127,4404.1,4062.05,4540,4142.56,3938.46,3605.13,4453.85,4439.49,4730.77,4492.31,4551.79,4334.87,4275.38,3928.72,1652,1689,0.267,0,0,0,0,
128,4404.62,4063.59,4542.05,4141.54,3948.72,3605.64,4448.21,4437.95,4725.13,4481.54,4551.79,4327.69,4273.33,3930.26,1653,1689,0.274,0,0,0,0,
0,4415.38,4066.15,4548.72,4149.74,3960,3607.18,4450.26,4441.54,4724.62,4498.97,4558.97,4334.36,4279.49,3946.15,1653,1690,0.282,0,0,0,0,
1,4414.87,4054.36,4539.49,4147.18,3948.72,3606.67,4454.36,4438.46,4718.97,4504.1,4556.41,4338.46,4282.05,3938.46,1654,1690,0.29,0,0,0,0,
2,4410.26,4034.36,4533.33,4127.69,3936.92,3605.13,4453.85,4429.23,4714.36,4484.62,4552.31,4331.28,4276.92,3923.59,1654,1691,0.298,0,0,0,0,
3,4406.67,4047.69,4537.44,4138.46,3951.79,3608.21,4453.85,4429.23,4719.49,4482.05,4555.38,4325.64,4274.36,3938.46,1656,1691,0.305,0,0,0,0,
4,4406.15,4078.46,4535.9,4161.54,3961.54,3614.36,4451.28,4434.87,4725.64,4500,4561.03,4329.23,4280.51,3943.59,1655,1692,0.313,0,0,0,0,
5,4423.08,4072.31,4536.92,4150.77,3952.31,3614.87,4445.13,4430.77,4724.1,4508.72,4566.67,4337.95,4283.08,3941.54,1656,1692,0.321,0,0,0,0,
6,4435.38,4055.38,4542.05,4144.1,3958.97,3612.82,4445.13,4427.69,4724.1,4503.08,4565.13,4343.59,4278.97,3965.64,1655,1692,0.328,0,0,0,0,
7,4421.03,4062.05,4532.82,4154.87,3975.38,3614.87,4451.28,4436.41,4730.77,4494.87,4560,4342.05,4276.92,3969.23,1655,1691,0.336,0,0,0,0,
8,4418.46,4063.08,4524.1,4147.18,3967.18,3617.95,4456.41,4444.1,4734.87,4491.28,4562.05,4337.44,4280.51,3940.51,1654,1691,0.345,0,0,0,0,
9,4426.67,4050.77,4525.64,4129.23,3951.28,3613.33,4457.44,4444.1,4733.85,4497.95,4560.51,4333.85,4282.05,3933.33,1655,1691,0.352,0,0,0,0,
10,4414.36,4061.03,4525.13,4142.05,3959.49,3612.82,4455.9,4445.13,4735.9,4506.67,4558.46,4336.92,4279.49,3945.64,1654,1691,0.361,0,0,0,0,
11,4409.74,4073.85,4520.51,4157.44,3967.69,3617.44,4454.36,4446.67,4735.9,4507.69,4565.64,4342.05,4277.44,3944.62,1655,1692,0.368,0,0,0,0,
12,4429.23,4052.82,4522.05,4146.15,3959.49,3614.36,4452.82,4446.15,4732.31,4504.1,4566.15,4342.56,4276.92,3941.54,1654,1692,0.375,0,0,0,0,
13,4427.69,4041.54,4525.13,4144.1,3958.46,3610.26,4449.23,4445.13,4733.33,4504.1,4554.87,4338.46,4277.44,3944.1,1655,1694,0.383,0,0,0,0,
14,4409.74,4067.69,4522.56,4153.85,3962.05,3614.87,4446.15,4444.1,4731.28,4507.69,4552.31,4333.85,4282.05,3948.72,1655,1692,0.391,0,0,0,0,
15,4420.51,4069.23,4522.56,4140.51,3956.41,3616.92,4446.67,4442.05,4727.18,4500.51,4555.9,4335.38,4275.9,3958.46,1655,1694,0.4,0,0,0,0,
16,4432.82,4039.49,4524.62,4132.31,3958.97,3614.36,4450.26,4441.03,4730.77,4489.23,4550.26,4342.05,4262.56,3956.41,1656,1692,0.407,0,0,0,0,
17,4418.97,4047.69,4520,4153.33,3972.82,3614.36,4449.23,4443.59,4734.87,4497.95,4550.77,4343.08,4266.67,3939.49,1655,1692,0.415,0,0,0,0,
18,4407.18,4074.87,4511.28,4155.38,3975.38,3613.85,4447.18,4444.1,4731.79,4507.69,4555.9,4335.9,4279.49,3925.13,1656,1693,0.423,0,0,0,0,
19,4409.23,4061.54,4507.18,4138.46,3969.74,3615.9,4452.82,4442.05,4731.28,4500,4554.87,4334.87,4278.97,3933.33,1655,1692,0.43,0,0,0,0,
20,4417.95,4042.05,4509.23,4142.56,3971.79,3621.03,4460.51,4445.64,4732.82,4498.97,4554.87,4341.03,4275.9,3943.59,1655,1692,0.439,0,0,0,0,
21,4424.1,4053.33,4515.9,4141.03,3974.36,3619.49,4460.51,4456.41,4733.33,4507.18,4557.44,4346.15,4278.97,3948.21,1654,1692,0.446,0,0,0,0,
22,4426.15,4050.26,4520,4134.36,3972.82,3620,4460.51,4462.05,4744.62,4514.36,4557.95,4352.82,4282.05,3960,1654,1693,0.454,0,0,0,0,
23,4430.77,4027.18,4514.87,4145.64,3969.23,3620.51,4461.54,4460.51,4750.77,4520.51,4554.87,4357.95,4275.9,3960,1653,1692,0.467,0,0,0,0,
24,4434.36,4047.18,4510.26,4155.38,3969.74,3611.28,4455.9,4457.95,4741.03,4517.44,4554.36,4357.44,4270.77,3955.38,1653,1694,0.469,0,0,0,0,
25,4426.67,4077.44,4507.18,4146.67,3973.33,3606.15,4447.18,4451.28,4732.31,4505.64,4558.46,4352.31,4281.03,3961.54,1654,1693,0.478,0,0,0,0,
26,4410.77,4052.31,4495.38,4135.38,3968.21,3607.18,4443.08,4442.56,4731.28,4503.59,4556.41,4336.92,4290.26,3940.51,1653,1693,0.486,0,0,0,0,
27,4408.72,4032.31,4485.13,4140.51,3966.67,3606.67,4444.1,4439.49,4729.74,4505.13,4543.59,4328.72,4271.79,3914.87,1655,1691,0.492,0,0,0,0,
28,4418.97,4052.31,4490.26,4138.46,3977.95,3613.85,4446.67,4444.1,4731.79,4502.05,4535.38,4344.1,4253.85,3941.54,1654,1691,0.501,0,0,0,0,
29,4415.38,4052.82,4493.85,4122.05,3980,3618.97,4446.15,4446.67,4738.46,4506.67,4541.03,4348.72,4265.13,3958.97,1657,1691,0.508,0,0,0,0,
30,4407.69,4037.95,4490.26,4131.79,3975.9,3615.9,4444.1,4445.13,4736.41,4504.1,4542.05,4331.28,4269.23,3937.44,1657,1690,0.517,0,0,0,0,
31,4422.56,4043.08,4491.79,4156.41,3984.1,3616.41,4444.62,4442.56,4732.31,4490.26,4536.92,4334.87,4255.38,3940,1658,1691,0.525,0,0,0,0,
32,4437.95,4044.1,4493.33,4148.72,3984.62,3614.36,4447.18,4443.59,4735.38,4496.92,4545.64,4350.26,4265.13,3945.64,1658,1691,0.531,0,0,0,0,
33,4424.62,4047.69,4487.18,4134.87,3979.49,3604.62,4445.13,4451.28,4735.9,4518.46,4559.49,4344.62,4292.82,3926.67,1658,1692,0.54,0,0,0,0,
34,4411.79,4058.97,4484.1,4138.46,3978.97,3607.69,4446.15,4456.92,4733.85,4517.95,4557.95,4337.44,4288.21,3936.92,1656,1692,0.547,0,0,0,0,
35,4425.64,4051.79,4490.77,4135.9,3975.9,3617.95,4453.85,4458.97,4742.56,4505.13,4551.79,4342.56,4264.62,3956.92,1655,1693,0.556,0,0,0,0,
36,4430.26,4044.1,4488.72,4136.92,3979.49,3614.36,4455.38,4457.44,4751.79,4509.23,4552.82,4343.59,4273.33,3939.49,1655,1691,0.564,0,0,0,0,
37,4412.82,4041.03,4471.79,4143.08,3981.54,3605.13,4446.67,4446.67,4737.44,4507.18,4546.67,4341.03,4279.49,3946.67,1653,1694,0.571,0,0,0,0,
38,4414.36,4032.31,4467.69,4134.36,3971.28,3603.59,4442.05,4438.46,4720.51,4494.36,4536.92,4342.05,4260,3978.97,1654,1693,0.578,0,0,0,0,
39,4430.26,4041.03,4475.9,4135.9,3976.41,3607.18,4444.62,4444.1,4730.26,4500.51,4548.72,4343.59,4265.13,3954.87,1652,1693,0.587,0,0,0,0,
40,4419.49,4056.41,4474.36,4137.95,3988.21,3608.72,4445.64,4447.69,4735.9,4509.23,4558.46,4342.05,4280,3914.87,1652,1694,0.594,0,0,0,0,
41,4410.26,4041.54,4470.77,4122.05,3977.44,3605.13,4441.54,4441.03,4722.05,4495.38,4542.56,4340,4268.21,3928.72,1652,1693,0.602,0,0,0,0,
42,4424.1,4028.72,4471.28,4123.08,3968.21,3602.05,4436.41,4441.54,4721.03,4489.74,4535.9,4342.56,4261.03,3949.74,1653,1694,0.611,0,0,0,0,
43,4423.08,4043.08,4463.08,4142.05,3977.44,3602.56,4433.33,4444.1,4731.79,4500,4548.72,4347.18,4270.77,3943.59,1653,1693,0.618,0,0,0,0,
44,4408.72,4045.13,4453.33,4144.62,3983.59,3603.59,4437.95,4440.51,4728.21,4498.46,4545.64,4341.03,4267.69,3940,1653,1694,0.626,0,0,0,0,
45,4409.23,4036.41,4454.36,4132.31,3982.56,3604.62,4443.08,4440,4722.56,4494.36,4534.36,4332.82,4264.62,3944.1,1654,1693,0.634,0,0,0,0,
46,4413.33,4041.03,4455.9,4125.64,3983.08,3606.15,4442.05,4441.54,4729.74,4496.92,4535.38,4334.36,4265.13,3942.56,1654,1693,0.641,0,0,0,0,
47,4411.28,4047.18,4454.87,4128.21,3983.08,3606.15,4441.03,4441.03,4735.9,4493.33,4534.87,4332.31,4257.44,3930.26,1655,1692,0.65,0,0,0,0,
48,4417.95,4042.05,4454.87,4127.18,3976.92,3606.15,4442.56,4441.54,4736.41,4496.41,4533.85,4332.31,4265.13,3928.21,1654,1693,0.658,0,0,0,0,
49,4426.67,4045.13,4457.44,4118.97,3973.85,3605.13,4442.05,4444.1,4733.33,4511.79,4545.13,4345.64,4282.05,3944.62,1656,1692,0.665,0,0,0,0,
50,4427.69,4054.36,4458.97,4123.08,3986.67,3604.1,4441.03,4444.62,4738.97,4521.54,4556.41,4348.72,4286.15,3946.67,1653,1692,0.672,0,0,0,0,
51,4431.28,4052.31,4459.49,4146.15,4001.54,3611.79,4443.59,4445.64,4751.28,4520,4552.31,4344.1,4277.95,3945.13,1655,1693,0.681,0,0,0,0,
52,4435.9,4050.77,4454.87,4154.36,4004.62,3621.03,4445.64,4446.15,4744.1,4513.85,4542.05,4347.69,4275.38,3961.03,1655,1692,0.688,0,0,0,0,
53,4434.87,4057.44,4447.69,4143.59,4003.08,3621.03,4445.64,4446.15,4729.23,4508.21,4540.51,4348.72,4277.95,3970.26,1654,1694,0.696,0,0,0,0,
54,4429.23,4061.03,4445.64,4136.41,4003.59,3618.46,4446.15,4446.67,4737.44,4509.23,4544.1,4342.05,4280.51,3957.44,1654,1693,0.704,0,0,0,0,
55,4428.21,4062.05,4444.62,4139.49,4003.59,3619.49,4445.13,4446.15,4742.56,4510.26,4543.08,4342.05,4280,3945.64,1654,1693,0.711,0,0,0,0,
56,4425.64,4062.05,4440,4140.51,4004.62,3618.97,4444.62,4442.56,4728.21,4506.67,4537.95,4342.05,4270.77,3942.05,1655,1692,0.719,0,0,0,0,
57,4426.67,4054.36,4442.56,4128.21,4005.13,3618.97,4445.13,4441.54,4727.69,4507.69,4538.46,4340.51,4266.67,3940.51,1655,1692,0.727,0,0,0,0,
58,4427.69,4049.74,4444.1,4125.13,4005.13,3620.51,4445.64,4445.13,4737.44,4507.69,4542.56,4344.1,4273.33,3941.03,1655,1692,0.736,0,0,0,0,
59,4415.9,4051.79,4429.74,4136.41,4004.62,3613.85,4443.08,4439.49,4730.26,4493.85,4535.9,4334.36,4271.79,3940,1656,1694,0.743,0,0,0,0,
60,4407.18,4045.13,4421.54,4136.92,4002.56,3605.13,4441.54,4429.23,4722.05,4489.23,4522.56,4326.15,4258.46,3932.82,1656,1693,0.75,0,0,0,0,
61,4415.9,4036.41,4429.23,4124.62,4000,3605.13,4442.56,4428.72,4726.15,4503.08,4522.56,4333.33,4252.82,3924.62,1656,1694,0.758,0,0,0,0,
62,4418.97,4044.1,4430.77,4121.03,4000.51,3611.79,4443.08,4433.33,4728.72,4504.1,4526.15,4331.79,4251.28,3928.72,1655,1691,0.766,0,0,0,0,
63,4408.21,4051.79,4425.13,4124.1,4005.64,3613.85,4443.08,4434.87,4725.13,4486.67,4520,4322.56,4246.15,3928.72,1655,1690,0.775,0,0,0,0,
64,4414.36,4044.1,4424.1,4124.62,4008.21,3616.92,4445.13,4440.51,4733.85,4490.26,4517.95,4326.67,4248.21,3920.51,1654,1689,0.783,0,0,0,0,
65,4428.21,4045.64,4426.67,4126.67,4006.67,3617.95,4447.18,4448.21,4747.69,4509.74,4523.59,4337.95,4249.74,3936.41,1654,1690,0.79,0,0,0,0,
66,4420.51,4056.92,4429.23,4118.97,4004.1,3609.74,4443.59,4442.05,4738.97,4505.13,4522.05,4335.38,4246.67,3951.79,1654,1690,0.797,0,0,0,0,
67,4412.82,4051.79,4425.64,4117.95,4003.08,3608.72,4441.03,4436.92,4722.05,4489.74,4520,4329.74,4245.13,3932.31,1654,1691,0.806,0,0,0,0,
68,4419.49,4045.13,4418.97,4136.92,4007.18,3618.46,4444.62,4442.05,4726.15,4488.72,4524.1,4330.26,4249.23,3913.33,1655,1691,0.813,0,0,0,0,
69,4420,4054.36,4418.97,4140,4013.85,3620.51,4446.15,4444.1,4735.38,4491.79,4523.59,4335.9,4246.15,3932.31,1652,1692,0.822,0,0,0,0,
70,4419.49,4046.67,4425.13,4122.05,4013.33,3616.92,4445.13,4441.54,4730.77,4495.38,4518.97,4343.08,4234.36,3955.38,1654,1692,0.83,0,0,0,0,
71,4431.28,4023.08,4429.23,4118.46,4010.26,3620.51,4445.64,4444.62,4734.87,4505.13,4525.64,4345.13,4247.69,3947.18,1654,1691,0.836,0,0,0,0,
72,4435.9,4036.92,4426.15,4136.41,4016.41,3621.54,4445.13,4447.69,4747.18,4513.33,4538.97,4340.51,4279.49,3935.9,1654,1692,0.844,0,0,0,0,
73,4427.69,4067.18,4418.46,4147.69,4022.56,3615.9,4444.1,4447.69,4749.74,4511.28,4539.49,4342.05,4279.49,3948.72,1655,1691,0.853,0,0,0,0,
74,4429.23,4061.03,4420,4132.82,4015.9,3616.41,4443.59,4446.15,4745.64,4509.23,4535.9,4346.67,4263.08,3958.97,1655,1692,0.86,0,0,0,0,
75,4444.1,4039.49,4427.69,4118.97,4011.79,3620,4442.05,4445.13,4745.64,4516.41,4540,4344.1,4268.72,3952.82,1656,1692,0.868,0,0,0,0,
76,4444.1,4045.13,4422.05,4131.79,4017.44,3621.54,4442.05,4454.36,4750.77,4520.51,4541.03,4342.56,4273.85,3956.92,1656,1691,0.876,0,0,0,0,
77,4428.72,4061.03,4410.26,4146.15,4022.05,3620.51,4445.13,4460.51,4753.33,4511.79,4535.38,4345.64,4265.13,3957.44,1656,1690,0.884,0,0,0,0,
78,4433.33,4052.31,4411.79,4140,4019.49,3620,4445.13,4451.28,4745.13,4506.15,4536.41,4344.1,4265.64,3942.05,1656,1690,0.891,0,0,0,0,
79,4448.72,4041.03,4415.9,4133.33,4016.41,3618.97,4444.1,4440.51,4732.31,4506.67,4537.95,4339.49,4266.67,3943.59,1657,1690,0.9,0,0,0,0,
80,4443.59,4054.87,4412.82,4135.38,4022.05,3621.03,4444.1,4444.62,4736.41,4508.72,4532.82,4343.59,4261.54,3960,1655,1691,0.907,0,0,0,0,
81,4441.54,4062.05,4412.31,4142.05,4030.26,3624.1,4444.62,4454.36,4748.21,4512.31,4534.87,4353.33,4262.05,3961.03,1655,1693,0.916,0,0,0,0,
82,4448.72,4047.18,4415.9,4140.51,4027.69,3621.54,4444.62,4455.38,4746.67,4514.36,4540.51,4353.85,4268.21,3949.74,1655,1692,0.923,0,0,0,0,
83,4443.08,4046.15,4415.38,4127.18,4015.38,3617.44,4442.05,4449.74,4744.62,4507.18,4536.41,4349.23,4264.62,3955.9,1654,1692,0.93,0,0,0,0,
84,4435.38,4051.79,4410.26,4127.69,4012.31,3617.95,4440.51,4448.72,4748.72,4504.1,4530.77,4357.95,4251.79,3975.9,1656,1692,0.938,0,0,0,0,
85,4442.56,4046.15,4410.26,4148.72,4023.59,3620,4440.51,4456.41,4748.72,4511.79,4534.36,4368.21,4260,3974.87,1655,1693,0.946,0,0,0,0,
86,4449.23,4052.82,4414.87,4157.44,4029.74,3621.03,4442.05,4460,4748.21,4522.56,4542.05,4361.54,4282.56,3953.85,1655,1692,0.955,0,0,0,0,
87,4447.69,4062.56,4416.41,4148.72,4028.72,3621.54,4443.08,4454.87,4752.31,4525.64,4544.1,4353.85,4285.64,3951.79,1655,1692,0.963,0,0,0,0,
88,4445.13,4050.26,4411.79,4139.49,4027.69,3621.54,4437.95,4448.21,4745.13,4513.33,4540.51,4356.41,4275.38,3963.08,1656,1691,0.97,0,0,0,0,
89,4445.64,4047.18,4403.59,4141.54,4026.67,3622.05,4431.79,4444.62,4734.36,4502.56,4536.41,4356.92,4272.31,3957.44,1654,1691,0.978,0,0,0,0,
90,4446.15,4055.38,4402.56,4145.13,4021.03,3621.03,4429.74,4445.13,4735.9,4509.23,4536.92,4353.33,4265.64,3957.95,1656,1691,0.986,0,0,0,0,
91,4445.64,4038.97,4411.28,4127.18,4017.44,3618.46,4429.23,4444.62,4737.95,4509.74,4535.9,4349.74,4262.05,3968.21,1655,1691,0.994,0,0,0,0,
92,4445.64,4026.67,4408.21,4123.59,4020.51,3618.46,4428.21,4442.56,4731.79,4503.08,4535.9,4348.21,4275.9,3960,1655,1692,1.002,0,0,0,0,
93,4445.64,4050.26,4392.82,4151.79,4027.69,3620,4428.72,4443.08,4730.77,4512.82,4540,4352.82,4281.03,3956.92,1654,1691,1.01,0,0,0,0,
94,4441.03,4069.74,4390.26,4156.92,4032.31,3620.51,4430.26,4445.64,4736.41,4522.05,4538.46,4353.85,4272.82,3969.23,1654,1694,1.017,0,0,0,0,
95,4446.15,4048.72,4398.46,4134.87,4024.1,3620,4428.72,4444.1,4735.38,4504.62,4527.69,4349.74,4261.54,3966.67,1655,1693,1.025,0,0,0,0,
96,4454.36,4026.15,4398.97,4129.74,4017.44,3618.46,4432.31,4440,4729.74,4489.74,4520,4350.77,4256.41,3948.72,1653,1694,1.033,0,0,0,0,
97,4448.72,4041.54,4392.31,4143.59,4030.26,3622.05,4441.03,4449.23,4735.9,4504.1,4523.59,4351.79,4267.18,3951.28,1655,1694,1.041,0,0,0,0,
98,4435.9,4051.79,4383.08,4144.1,4038.97,3630.26,4442.56,4456.92,4744.1,4514.87,4527.69,4341.54,4274.87,3951.79,1653,1693,1.049,0,0,0,0,
99,4436.41,4036.41,4378.97,4126.67,4030.26,3627.18,4434.87,4446.15,4735.38,4500.51,4523.08,4330.77,4265.64,3943.08,1655,1694,1.056,0,0,0,0,
100,4443.08,4041.03,4382.56,4125.64,4028.21,3620.51,4430.26,4443.59,4733.33,4501.54,4524.62,4334.36,4258.46,3948.21,1653,1693,1.064,0,0,0,0,
101,4444.62,4065.64,4383.59,4149.74,4037.95,3622.05,4430.77,4456.41,4745.13,4521.54,4535.9,4343.59,4266.15,3950.26,1654,1693,1.072,0,0,0,0,
102,4445.13,4056.92,4382.05,4158.46,4036.92,3623.08,4428.21,4455.9,4739.49,4518.97,4539.49,4344.1,4275.38,3947.69,1654,1692,1.08,0,0,0,0,
103,4442.05,4041.03,4383.08,4142.05,4032.82,3620.51,4429.23,4451.28,4732.82,4502.56,4533.85,4340.51,4275.38,3959.49,1654,1693,1.088,0,0,0,0,
104,4444.62,4043.08,4383.08,4144.1,4035.38,3622.05,4432.82,4457.95,4744.62,4513.33,4536.92,4345.13,4277.95,3962.56,1655,1692,1.095,0,0,0,0,
105,4450.77,4036.41,4379.49,4149.23,4033.33,3624.1,4432.31,4455.9,4744.62,4524.1,4540,4351.79,4278.97,3949.74,1654,1694,1.103,0,0,0,0,
106,4442.05,4040.51,4376.41,4133.33,4029.74,3623.08,4428.72,4446.67,4731.79,4507.69,4530.26,4348.72,4269.74,3948.72,1655,1693,1.111,0,0,0,0,
107,4432.82,4062.05,4372.82,4129.23,4026.15,3622.05,4429.74,4446.67,4729.74,4496.41,4524.62,4343.59,4258.46,3953.33,1654,1693,1.119,0,0,0,0,
108,4440,4053.33,4367.69,4140,4019.49,3620.51,4430.77,4446.15,4728.21,4503.59,4523.08,4340,4261.54,3953.33,1656,1694,1.127,0,0,0,0,
109,4444.62,4035.38,4364.62,4142.05,4021.54,3618.46,4427.69,4444.62,4726.15,4506.67,4525.13,4340.51,4269.23,3953.85,1655,1691,1.135,0,0,0,0,
110,4443.08,4039.49,4366.67,4136.41,4033.85,3620.51,4430.26,4453.85,4734.87,4507.69,4532.82,4350.77,4265.13,3954.36,1655,1690,1.142,0,0,0,0,
111,4447.18,4031.79,4369.74,4131.28,4032.82,3622.05,4433.33,4463.08,4740.51,4510.26,4532.31,4356.41,4263.59,3956.92,1655,1689,1.15,0,0,0,0,
112,4441.03,4033.85,4361.03,4136.41,4023.59,3619.49,4428.21,4456.92,4735.38,4509.74,4525.13,4342.05,4271.79,3949.74,1656,1688,1.158,0,0,0,0,
113,4433.33,4055.9,4356.41,4137.95,4027.18,3615.9,4425.13,4443.59,4728.21,4505.64,4525.13,4332.31,4272.31,3936.92,1655,1688,1.166,0,0,0,0,
114,4444.1,4050.26,4366.15,4127.18,4032.31,3617.44,4429.74,4447.69,4729.23,4506.67,4526.15,4341.54,4262.56,3946.15,1655,1689,1.174,0,0,0,0,
115,4446.15,4037.95,4363.08,4126.67,4028.21,3621.54,4431.28,4456.92,4733.33,4511.79,4521.54,4344.62,4262.56,3954.36,1654,1691,1.182,0,0,0,0,
116,4431.28,4044.62,4346.67,4140.51,4025.64,3622.56,4428.21,4449.74,4728.21,4513.85,4524.62,4332.31,4278.46,3930.77,1654,1692,1.189,0,0,0,0,
117,4427.18,4047.69,4344.62,4141.03,4032.82,3622.56,4433.33,4446.15,4725.13,4507.18,4527.18,4331.79,4274.87,3928.21,1653,1693,1.197,0,0,0,0,
118,4437.95,4040.51,4352.31,4134.36,4035.9,3622.05,4439.49,4456.41,4731.28,4503.08,4518.97,4343.59,4256.41,3951.28,1653,1693,1.205,0,0,0,0,
119,4444.62,4034.36,4351.28,4132.82,4030.77,3621.03,4437.95,4460,4735.38,4507.69,4524.1,4344.62,4265.13,3949.23,1653,1694,1.213,0,0,0,0,
120,4444.62,4037.44,4350.26,4133.85,4028.72,3621.03,4437.95,4457.95,4734.87,4512.82,4537.95,4337.44,4283.08,3937.44,1654,1694,1.221,0,0,0,0,
121,4437.44,4044.62,4351.28,4134.87,4032.31,3621.03,4436.41,4461.54,4736.41,4507.69,4533.85,4335.38,4273.85,3936.92,1653,1692,1.228,0,0,0,0,
122,4432.31,4034.36,4351.28,4125.13,4028.72,3620,4432.82,4460.51,4735.38,4503.08,4520.51,4335.9,4257.44,3944.1,1654,1693,1.236,0,0,0,0,
123,4441.03,4025.64,4353.85,4121.03,4025.64,3620.51,4438.46,4458.46,4732.82,4506.67,4522.05,4336.92,4261.03,3951.28,1655,1692,1.244,0,0,0,0,
124,4445.13,4048.21,4352.31,4140.51,4035.38,3623.08,4441.54,4462.05,4735.9,4511.79,4527.69,4340.51,4267.69,3951.28,1655,1692,1.252,0,0,0,0,
125,4434.36,4053.85,4345.13,4143.08,4037.44,3622.56,4431.79,4455.38,4733.33,4507.18,4521.03,4338.46,4261.54,3943.08,1657,1692,1.26,0,0,0,0,
126,4433.33,4034.87,4344.1,4128.21,4025.64,3613.85,4425.13,4443.59,4721.54,4501.54,4519.49,4329.74,4257.44,3935.9,1655,1693,1.267,0,0,0,0,
127,4445.13,4036.41,4349.74,4133.85,4024.62,3606.15,4426.67,4443.59,4714.87,4504.62,4525.13,4331.79,4262.05,3935.38,1656,1694,1.275,0,0,0,0,
128,4445.64,4046.67,4351.28,4142.56,4035.38,3606.15,4426.15,4449.74,4719.49,4509.23,4524.62,4344.62,4264.62,3943.08,1656,1693,1.282,0,0,0,0,
0,4444.1,4050.26,4350.26,4140.51,4037.95,3606.67,4425.64,4453.85,4725.13,4505.13,4526.67,4351.79,4259.49,3956.92,1655,1694,1.291,0,0,0,0,
1,4455.38,4051.79,4357.95,4137.44,4033.33,3610.26,4426.67,4456.92,4729.74,4506.15,4537.44,4351.79,4266.15,3969.74,1655,1693,1.298,0,0,0,0,
2,4457.44,4051.28,4360.51,4138.97,4034.36,3618.46,4428.21,4460.51,4733.85,4522.05,4544.1,4353.33,4283.59,3968.21,1655,1693,1.307,0,0,0,0,
3,4443.59,4053.85,4346.67,4144.1,4036.41,3621.03,4430.26,4460,4732.31,4525.64,4541.54,4353.33,4277.95,3951.28,1655,1691,1.313,0,0,0,0,
4,4440.51,4055.9,4338.46,4145.13,4034.36,3615.38,4428.72,4457.44,4729.23,4510.26,4534.36,4346.67,4260.51,3940.51,1654,1691,1.322,0,0,0,0,
5,4446.15,4047.69,4341.54,4137.95,4035.9,3616.41,4427.69,4458.46,4733.33,4504.1,4526.67,4341.03,4262.56,3945.64,1655,1689,1.33,0,0,0,0,
6,4441.54,4035.38,4338.97,4125.64,4036.41,3617.95,4429.74,4458.46,4736.41,4510.26,4523.59,4341.03,4267.69,3943.08,1654,1691,1.338,0,0,0,0,
7,4431.79,4034.36,4334.36,4118.97,4029.23,3608.21,4424.1,4449.74,4725.64,4509.23,4523.08,4336.41,4260,3933.33,1655,1690,1.346,0,0,0,0,
8,4429.74,4045.64,4331.79,4131.28,4026.15,3601.54,4416.41,4437.95,4710.26,4504.1,4522.05,4330.26,4259.49,3934.36,1653,1691,1.354,0,0,0,0,
9,4438.46,4056.41,4334.36,4144.1,4035.38,3606.67,4420.51,4444.1,4716.41,4505.13,4529.74,4334.87,4265.64,3947.69,1655,1692,1.36,0,0,0,0,
10,4451.79,4047.18,4341.54,4132.82,4039.49,3612.31,4428.72,4458.46,4732.82,4511.79,4539.49,4343.59,4264.62,3955.38,1654,1692,1.368,0,0,0,0,
11,4447.69,4040.51,4338.46,4126.15,4033.33,3612.82,4427.69,4456.92,4733.85,4511.79,4535.9,4339.49,4264.1,3943.08,1655,1694,1.376,0,0,0,0,
12,4439.49,4052.31,4330.26,4143.59,4037.44,3616.92,4427.69,4451.79,4729.74,4507.18,4532.82,4340.51,4262.56,3941.54,1655,1693,1.385,0,0,0,0,
13,4443.59,4045.64,4333.33,4141.54,4043.59,3620,4429.23,4456.41,4733.33,4514.36,4538.46,4343.59,4265.64,3944.62,1654,1693,1.392,0,0,0,0,
14,4437.44,4036.41,4332.31,4126.67,4034.87,3618.46,4428.21,4459.49,4734.36,4518.46,4530.77,4330.26,4266.15,3935.9,1654,1692,1.4,0,0,0,0,
15,4433.85,4037.44,4325.13,4129.74,4032.82,3618.97,4431.28,4455.9,4733.33,4504.1,4518.97,4331.28,4254.36,3941.54,1654,1692,1.407,0,0,0,0,
16,4444.1,4035.9,4327.18,4133.33,4043.08,3616.41,4434.36,4460,4738.97,4506.67,4530.26,4349.74,4250.77,3955.38,1654,1690,1.416,0,0,0,0,
17,4434.87,4041.54,4322.56,4125.13,4042.56,3608.21,4429.74,4460.51,4738.97,4523.59,4544.1,4343.59,4267.18,3941.54,1652,1692,1.423,0,0,0,0,
18,4416.92,4052.31,4305.64,4124.1,4031.79,3605.13,4426.15,4446.67,4722.05,4514.36,4531.28,4321.54,4268.72,3921.54,1654,1691,1.431,0,0,0,0,
19,4423.08,4045.64,4305.64,4127.18,4035.38,3613.33,4428.72,4441.03,4716.92,4500.51,4517.95,4322.05,4251.79,3926.67,1652,1691,1.44,0,0,0,0,
20,4431.79,4041.03,4321.54,4119.49,4044.1,3620.51,4431.79,4445.13,4729.23,4515.38,4528.21,4332.31,4254.36,3940.51,1653,1692,1.446,0,0,0,0,
21,4433.85,4049.23,4326.15,4127.18,4045.13,3616.92,4433.85,4445.13,4730.77,4522.56,4531.79,4333.33,4267.18,3945.64,1653,1691,1.455,0,0,0,0,
22,4448.21,4045.13,4323.08,4149.74,4049.23,3615.9,4438.97,4448.21,4727.18,4509.23,4523.59,4333.33,4265.64,3939.49,1653,1692,1.462,0,0,0,0,
23,4448.72,4042.05,4321.54,4148.21,4052.31,3619.49,4441.03,4455.9,4731.79,4503.59,4528.21,4335.38,4261.54,3937.44,1654,1692,1.471,0,0,0,0,
24,4431.79,4046.67,4316.92,4129.23,4045.13,3613.33,4434.36,4452.31,4730.77,4508.21,4533.33,4334.87,4264.1,3946.67,1654,1693,1.478,0,0,0,0,
25,4424.1,4040.51,4310.26,4125.13,4032.82,3605.13,4427.18,4443.08,4723.08,4507.18,4524.1,4328.21,4261.03,3940,1656,1693,1.487,0,0,0,0,
26,4422.56,4035.9,4309.74,4128.21,4034.36,3607.18,4427.69,4443.08,4722.56,4504.1,4520.51,4322.56,4250.77,3921.03,1656,1694,1.493,0,0,0,0,
27,4419.49,4034.87,4309.23,4125.13,4041.54,3608.21,4430.77,4444.62,4724.1,4502.05,4523.59,4325.13,4247.18,3929.23,1656,1693,1.501,0,0,0,0,
28,4424.1,4034.87,4309.23,4120,4036.92,3608.72,4427.69,4442.56,4726.67,4504.1,4520,4331.28,4245.64,3950.26,1655,1693,1.51,0,0,0,0,
29,4434.36,4044.62,4321.03,4117.95,4036.41,3615.9,4428.72,4448.72,4739.49,4515.9,4524.1,4337.44,4253.33,3940.51,1656,1692,1.517,0,0,0,0,
30,4442.56,4056.41,4328.21,4137.95,4050.26,3621.03,4438.46,4461.03,4748.72,4525.13,4540,4347.69,4268.21,3941.03,1654,1691,1.526,0,0,0,0,
31,4448.21,4054.36,4323.08,4156.41,4056.92,3620,4445.64,4463.08,4743.08,4522.56,4546.67,4354.36,4271.79,3965.64,1655,1692,1.532,0,0,0,0,
32,4446.67,4051.28,4315.9,4144.62,4049.23,3618.97,4442.05,4452.82,4732.31,4519.49,4541.54,4350.77,4267.69,3959.49,1655,1691,1.54,0,0,0,0,
33,4442.56,4053.85,4315.38,4134.87,4048.72,3618.97,4438.46,4450.26,4730.77,4522.56,4541.03,4348.72,4273.85,3942.05,1653,1693,1.548,0,0,0,0,
34,4447.18,4055.38,4319.49,4142.05,4053.85,3620,4443.08,4456.92,4737.95,4526.15,4544.62,4351.28,4281.03,3954.36,1654,1692,1.556,0,0,0,0,
35,4448.21,4059.49,4317.44,4145.64,4053.85,3621.03,4447.18,4457.95,4741.54,4522.05,4542.05,4347.18,4273.33,3961.03,1653,1693,1.565,0,0,0,0,
36,4437.44,4056.92,4308.72,4135.38,4051.79,3618.97,4445.13,4455.38,4739.49,4508.72,4538.46,4338.97,4264.1,3944.1,1653,1694,1.572,0,0,0,0,
37,4426.67,4038.97,4303.08,4126.67,4045.64,3617.44,4443.08,4455.9,4734.87,4503.08,4537.44,4336.41,4263.08,3937.44,1653,1694,1.58,0,0,0,0,
38,4432.82,4030.26,4306.67,4126.15,4044.1,3618.97,4445.64,4458.46,4734.87,4514.87,4535.38,4340,4264.1,3945.13,1654,1694,1.587,0,0,0,0,
39,4445.13,4044.62,4314.36,4125.64,4051.79,3622.05,4447.18,4461.03,4735.9,4525.64,4537.95,4344.62,4267.69,3952.82,1653,1693,1.595,0,0,0,0,
40,4441.03,4047.69,4312.82,4125.64,4053.85,3622.05,4443.08,4458.46,4734.36,4520,4539.49,4346.15,4263.59,3958.97,1655,1693,1.603,0,0,0,0,
41,4430.77,4033.85,4303.59,4138.97,4050.77,3619.49,4443.59,4447.18,4734.36,4507.69,4528.72,4338.46,4249.74,3951.28,1655,1692,1.611,0,0,0,0,
42,4429.74,4030.26,4297.44,4139.49,4055.38,3626.15,4444.62,4443.59,4732.82,4499.49,4520.51,4325.13,4242.05,3932.82,1655,1690,1.618,0,0,0,0,
43,4428.72,4044.62,4298.46,4124.1,4061.54,3633.33,4443.59,4454.87,4737.44,4505.64,4527.69,4323.08,4250.77,3927.69,1655,1690,1.627,0,0,0,0,
44,4429.23,4055.9,4304.62,4137.44,4061.03,3627.18,4452.31,4462.56,4752.31,4522.56,4541.54,4335.9,4264.62,3946.15,1656,1691,1.635,0,0,0,0,
45,4439.49,4050.26,4305.64,4156.92,4058.97,3620,4459.49,4459.49,4753.85,4528.21,4552.31,4346.15,4274.36,3960.51,1655,1691,1.642,0,0,0,0,
46,4442.05,4048.72,4300,4143.08,4057.44,3621.03,4449.74,4457.95,4744.62,4524.62,4553.33,4345.13,4273.85,3956.41,1656,1690,1.651,0,0,0,0,
47,4438.46,4052.31,4298.46,4131.79,4058.46,3621.03,4442.05,4460,4746.67,4522.05,4551.28,4344.62,4267.18,3955.38,1654,1691,1.657,0,0,0,0,
48,4441.03,4046.67,4297.44,4142.05,4061.03,3618.97,4447.18,4459.49,4749.23,4518.46,4551.79,4344.1,4266.67,3956.92,1656,1692,1.665,0,0,0,0,
49,4440,4040.51,4296.41,4135.9,4062.05,3620,4445.64,4458.97,4742.56,4518.46,4547.69,4341.03,4265.13,3952.82,1654,1692,1.673,0,0,0,0,
50,4438.46,4044.1,4303.08,4122.05,4056.41,3619.49,4442.05,4458.97,4746.67,4525.13,4538.97,4344.1,4261.03,3957.95,1655,1693,1.681,0,0,0,0,
51,4443.59,4045.13,4305.64,4135.38,4047.18,3617.95,4443.59,4458.97,4752.31,4522.05,4539.49,4345.64,4262.05,3960.51,1656,1690,1.69,0,0,0,0,
52,4443.59,4045.64,4294.87,4148.72,4051.79,3617.95,4438.46,4458.97,4742.05,4508.72,4541.54,4341.54,4255.9,3952.31,1656,1691,1.697,0,0,0,0,
53,4442.05,4048.21,4295.9,4137.95,4062.56,3618.46,4435.38,4460,4738.46,4503.08,4539.49,4340.51,4247.18,3955.9,1657,1689,1.705,0,0,0,0,
54,4446.15,4040.51,4300.51,4131.79,4056.92,3617.95,4436.92,4458.97,4746.67,4508.72,4537.95,4342.56,4250.26,3961.54,1656,1691,1.712,0,0,0,0,
55,4445.13,4040,4295.38,4142.05,4050.77,3620.51,4435.9,4457.95,4751.28,4517.95,4540,4341.03,4256.41,3945.64,1657,1691,1.72,0,0,0,0,
56,4444.62,4053.85,4293.85,4145.64,4060.51,3619.49,4432.82,4459.49,4748.21,4523.59,4547.69,4341.54,4257.95,3939.49,1655,1692,1.728,0,0,0,0,
57,4441.54,4051.79,4291.28,4137.95,4063.59,3609.74,4430.26,4453.85,4739.49,4522.56,4547.18,4342.05,4253.33,3951.28,1656,1692,1.736,0,0,0,0,
58,4431.79,4040,4282.05,4132.82,4058.97,3609.74,4428.72,4446.15,4731.28,4519.49,4541.54,4333.85,4248.21,3945.13,1655,1693,1.745,0,0,0,0,
59,4434.36,4043.59,4278.97,4135.9,4059.49,3616.92,4430.77,4450.26,4733.85,4516.92,4549.74,4334.87,4249.74,3943.59,1655,1694,1.751,0,0,0,0,
60,4445.13,4043.08,4280.51,4129.23,4054.87,3612.82,4432.31,4457.95,4740,4512.31,4555.9,4344.62,4251.79,3960,1654,1694,1.76,0,0,0,0,
61,4444.1,4022.05,4281.03,4108.72,4044.1,3608.21,4432.82,4457.44,4742.56,4508.21,4541.54,4339.49,4248.72,3953.33,1654,1695,1.768,0,0,0,0,
62,4438.97,4020,4281.54,4117.44,4045.13,3615.9,4436.92,4456.92,4746.15,4507.69,4533.33,4332.31,4247.69,3935.9,1654,1693,1.776,0,0,0,0,
63,4444.1,4041.54,4280.51,4145.64,4055.38,3621.54,4441.03,4459.49,4748.21,4510.77,4547.69,4340,4251.28,3948.21,1653,1694,1.783,0,0,0,0,
64,4446.67,4047.69,4280.51,4144.62,4062.05,3620.51,4440,4458.97,4749.74,4513.33,4550.77,4345.13,4251.79,3958.97,1654,1691,1.791,0,0,0,0,
65,4441.03,4034.36,4277.44,4132.82,4061.54,3619.49,4432.82,4455.38,4747.18,4506.15,4540,4340,4241.54,3946.15,1653,1691,1.798,0,0,0,0,
66,4443.59,4031.28,4276.92,4136.41,4057.95,3617.95,4431.79,4455.38,4742.56,4505.64,4545.64,4341.03,4243.59,3943.59,1654,1690,1.806,0,0,0,0,
67,4458.46,4041.54,4289.74,4141.03,4060,3619.49,4440.51,4459.49,4749.23,4522.05,4560.51,4350.26,4262.05,3962.56,1654,1690,1.814,0,0,0,0,
68,4465.13,4044.1,4293.33,4143.08,4062.56,3620.51,4442.56,4462.05,4752.82,4525.64,4559.49,4354.87,4258.46,3971.79,1655,1692,1.822,0,0,0,0,
69,4450.77,4035.38,4281.03,4136.92,4055.38,3617.44,4437.95,4458.46,4744.1,4515.38,4552.82,4352.31,4249.74,3961.03,1655,1693,1.831,0,0,0,0,
70,4442.56,4023.08,4280.51,4124.1,4047.69,3618.46,4442.05,4457.95,4743.08,4518.97,4558.46,4349.74,4260.51,3953.85,1655,1695,1.837,0,0,0,0,
71,4446.67,4030.26,4281.03,4128.21,4051.28,3618.46,4445.13,4461.54,4749.23,4522.56,4559.49,4349.23,4261.03,3956.41,1655,1694,1.845,0,0,0,0,
72,4445.64,4041.54,4269.23,4140.51,4053.85,3612.82,4438.46,4455.9,4745.13,4510.77,4547.18,4346.15,4243.08,3962.05,1655,1694,1.853,0,0,0,0,
73,4439.49,4024.1,4267.18,4137.44,4042.05,3612.31,4436.92,4445.64,4735.38,4499.49,4537.95,4338.97,4232.82,3962.05,1655,1692,1.861,0,0,0,0,
74,4437.44,4011.28,4278.46,4128.21,4036.41,3618.97,4443.59,4450.26,4732.82,4498.97,4537.44,4333.85,4232.82,3942.05,1653,1692,1.869,0,0,0,0,
75,4450.26,4026.15,4280,4134.36,4045.64,3622.05,4446.15,4460.51,4741.54,4504.1,4540,4337.95,4237.44,3932.82,1654,1691,1.876,0,0,0,0,
76,4464.1,4036.41,4278.46,4146.15,4046.15,3613.85,4442.56,4461.03,4750.77,4510.77,4545.13,4353.33,4238.97,3956.92,1652,1692,1.885,0,0,0,0,
77,4454.87,4024.1,4280.51,4138.46,4037.44,3605.13,4442.05,4458.97,4751.28,4508.72,4550.77,4363.59,4237.44,3980.51,1654,1693,1.893,0,0,0,0,
78,4440,4018.97,4279.49,4127.69,4036.92,3604.1,4443.08,4458.97,4748.21,4503.08,4553.33,4354.87,4248.72,3973.85,1653,1692,1.9,0,0,0,0,
79,4451.28,4026.67,4278.97,4129.23,4038.97,3605.64,4438.46,4455.9,4747.18,4505.13,4552.82,4342.56,4254.36,3964.1,1653,1695,1.909,0,0,0,0,
80,4461.03,4026.67,4279.49,4132.31,4036.41,3604.62,4432.31,4450.26,4743.08,4506.67,4550.77,4340,4247.69,3952.82,1653,1695,1.916,0,0,0,0,
81,4447.18,4017.95,4272.31,4132.31,4034.36,3605.13,4431.28,4445.64,4734.36,4504.62,4546.67,4341.03,4247.69,3943.59,1653,1695,1.923,0,0,0,0,
82,4437.44,4015.9,4263.59,4137.95,4033.33,3605.13,4436.92,4443.08,4732.82,4503.08,4545.64,4342.56,4251.28,3956.92,1653,1696,1.932,0,0,0,0,
83,4443.08,4028.72,4264.1,4139.49,4036.92,3607.18,4444.62,4446.15,4746.15,4504.62,4549.74,4336.92,4256.41,3953.85,1653,1695,1.94,0,0,0,0,
84,4447.69,4018.97,4265.13,4131.79,4030.26,3612.31,4446.15,4447.18,4747.18,4505.64,4545.64,4336.41,4258.46,3940.51,1653,1693,1.948,0,0,0,0,
85,4444.62,3991.28,4265.64,4120,4009.23,3610.77,4443.59,4445.64,4734.36,4497.95,4530.26,4344.1,4241.03,3948.21,1653,1692,1.955,0,0,0,0,
86,4442.05,3996.41,4272.31,4118.46,4011.28,3606.15,4444.62,4448.72,4740,4491.79,4525.64,4346.67,4226.67,3948.21,1656,1689,1.963,0,0,0,0,
87,4440.51,4027.69,4270.77,4139.49,4031.79,3604.62,4437.44,4448.72,4745.64,4493.33,4537.44,4341.54,4235.38,3948.72,1655,1690,1.971,0,0,0,0,
88,4443.08,4021.03,4264.62,4144.1,4030.26,3603.59,4426.15,4444.62,4730.77,4491.79,4542.56,4341.03,4246.15,3963.08,1658,1690,1.978,0,0,0,0,
89,4447.18,3989.23,4265.13,4126.15,4017.44,3600.51,4430.26,4442.56,4728.21,4486.15,4536.92,4343.08,4252.82,3949.74,1657,1690,1.986,0,0,0,0,
90,4447.69,4004.62,4265.13,4132.31,4025.13,3606.15,4444.1,4446.67,4744.1,4499.49,4538.46,4341.54,4265.64,3939.49,1657,1693,1.995,0,0,0,0,
91,4447.18,4025.13,4270.26,4137.95,4025.13,3607.69,4446.67,4446.67,4739.49,4508.21,4542.05,4347.18,4265.64,3969.74,1657,1693,2.002,0,0,0,0,
92,4439.49,4004.1,4272.82,4123.08,4004.62,3593.33,4432.82,4436.92,4722.56,4492.82,4534.87,4349.74,4246.67,3956.41,1656,1694,2.011,0,0,0,0,
93,4436.41,4004.62,4262.05,4140,4006.67,3592.82,4429.74,4436.41,4729.23,4494.36,4537.95,4349.23,4247.69,3929.74,1654,1694,2.017,0,0,0,0,
94,4453.33,4027.18,4258.97,4157.95,4022.56,3607.18,4440.51,4445.64,4746.67,4505.64,4552.31,4348.72,4268.72,3969.74,1654,1694,2.025,0,0,0,0,
95,4464.1,4011.28,4265.13,4135.9,4013.85,3608.21,4444.1,4448.21,4752.31,4496.92,4548.21,4343.59,4269.74,4001.03,1653,1694,2.033,0,0,0,0,
96,4453.85,4002.05,4257.44,4126.67,4000.51,3602.05,4439.49,4445.64,4748.21,4492.82,4533.85,4345.64,4256.41,3978.46,1652,1693,2.041,0,0,0,0,
97,4454.87,4012.82,4267.18,4134.36,4011.79,3607.18,4442.56,4453.85,4750.77,4508.21,4545.64,4360,4264.1,3959.49,1652,1691,2.05,0,0,0,0,
98,4461.03,4015.38,4282.56,4138.46,4026.15,3609.23,4448.72,4458.46,4754.87,4510.77,4560,4356.92,4285.13,3950.26,1653,1689,2.056,0,0,0,0,
99,4447.18,4028.21,4257.44,4154.87,4023.59,3605.13,4445.13,4447.69,4748.72,4496.41,4546.15,4340,4281.03,3936.41,1654,1688,2.065,0,0,0,0,
100,4448.21,4010.77,4247.18,4148.72,4010.77,3604.62,4441.03,4441.03,4742.56,4487.69,4531.28,4348.72,4259.49,3948.72,1655,1689,2.072,0,0,0,0,
101,4461.03,3991.28,4271.79,4133.33,4007.18,3603.08,4440.51,4444.1,4744.62,4497.95,4538.46,4361.03,4264.1,3969.74,1655,1690,2.08,0,0,0,0,
102,4461.03,4021.54,4272.82,4156.41,4019.49,3603.08,4443.59,4447.69,4751.79,4515.9,4552.82,4354.87,4288.21,3984.1,1656,1692,2.088,0,0,0,0,
103,4462.56,4026.67,4260.51,4157.44,4015.9,3604.62,4442.56,4444.62,4751.28,4505.64,4554.87,4353.85,4288.21,3993.85,1657,1692,2.095,0,0,0,0,
104,4454.87,4000,4261.54,4125.13,4000,3604.62,4439.49,4442.05,4747.18,4489.74,4548.72,4355.38,4276.92,3972.82,1657,1693,2.103,0,0,0,0,
105,4440,4016.92,4257.44,4139.49,4004.1,3605.13,4443.08,4443.08,4750.26,4502.56,4547.69,4350.77,4284.1,3939.49,1658,1692,2.111,0,0,0,0,
106,4447.18,4022.05,4244.62,4156.41,3998.97,3604.1,4437.95,4442.56,4749.74,4504.1,4543.59,4344.62,4282.05,3936.41,1656,1693,2.12,0,0,0,0,
107,4463.59,3978.46,4251.28,4126.15,3983.59,3601.03,4433.33,4442.05,4747.18,4490.77,4541.54,4346.15,4267.18,3969.74,1657,1693,2.127,0,0,0,0,
108,4455.38,3985.64,4258.46,4127.69,4000,3603.59,4442.05,4442.56,4752.82,4503.08,4551.79,4352.31,4276.92,3982.56,1655,1691,2.135,0,0,0,0,
109,4440.51,4030.26,4253.85,4164.1,4017.44,3608.21,4448.21,4448.72,4763.59,4527.69,4559.49,4355.9,4299.49,3959.49,1654,1691,2.142,0,0,0,0,
110,4437.44,4029.74,4251.28,4166.15,4001.03,3608.21,4447.18,4457.44,4768.72,4525.13,4557.95,4347.69,4302.56,3951.79,1654,1691,2.151,0,0,0,0,
111,4450.77,4003.08,4258.97,4148.21,3986.15,3605.64,4447.69,4456.41,4759.49,4510.26,4551.79,4351.79,4288.72,3979.49,1653,1692,2.158,0,0,0,0,
112,4458.97,4007.69,4265.64,4147.69,3991.28,3604.62,4445.13,4445.64,4747.69,4505.13,4540,4368.21,4285.64,3974.87,1653,1692,2.166,0,0,0,0,
113,4454.87,4025.13,4263.08,4160.51,3995.38,3607.18,4441.03,4445.13,4749.23,4504.62,4542.05,4364.1,4300,3950.77,1654,1693,2.174,0,0,0,0,
114,4456.41,4004.1,4262.05,4171.79,3989.74,3607.18,4442.56,4448.21,4753.85,4506.15,4556.92,4355.38,4298.46,3974.87,1654,1693,2.181,0,0,0,0,
115,4461.03,4000.51,4265.13,4170.77,3986.67,3604.1,4441.03,4441.54,4745.64,4505.64,4555.38,4360,4276.92,3989.74,1654,1695,2.19,0,0,0,0,
116,4459.49,4026.67,4265.64,4156.92,3991.79,3602.56,4442.05,4441.54,4743.08,4501.54,4547.69,4364.1,4277.44,3961.54,1656,1696,2.197,0,0,0,0,
117,4458.46,4002.05,4259.49,4156.41,3995.38,3595.38,4443.59,4442.05,4752.31,4501.54,4555.38,4352.31,4298.46,3948.72,1655,1697,2.205,0,0,0,0,
118,4448.72,3975.38,4247.69,4167.18,3988.21,3589.74,4433.33,4428.21,4746.67,4494.36,4552.31,4342.56,4286.67,3965.64,1656,1697,2.213,0,0,0,0,
119,4438.97,4005.13,4245.13,4167.69,3987.69,3595.9,4428.72,4425.64,4737.95,4489.74,4538.46,4345.13,4269.23,3972.82,1655,1694,2.221,0,0,0,0,
120,4452.82,4040.51,4249.23,4167.69,3998.46,3605.13,4441.03,4442.05,4746.67,4505.64,4548.21,4350.26,4288.72,3972.82,1656,1694,2.228,0,0,0,0,
121,4462.05,4039.49,4254.87,4158.46,3996.41,3605.13,4447.69,4445.64,4750.26,4508.72,4558.46,4350.26,4292.31,3976.41,1656,1690,2.236,0,0,0,0,
122,4452.82,4020,4258.97,4141.54,3989.23,3602.56,4437.95,4432.82,4735.38,4490.26,4548.21,4343.08,4276.92,3957.44,1655,1690,2.244,0,0,0,0,
123,4451.79,4007.69,4255.38,4141.03,3989.74,3602.56,4436.41,4431.28,4729.23,4492.31,4543.08,4344.1,4285.13,3945.13,1655,1689,2.252,0,0,0,0,
124,4456.92,4007.69,4248.21,4157.44,3989.74,3602.05,4443.59,4435.38,4734.87,4499.49,4557.44,4347.18,4294.87,3965.13,1655,1691,2.26,0,0,0,0,
125,4453.33,4014.36,4247.18,4168.72,3987.18,3600.51,4438.46,4429.23,4731.79,4486.15,4555.9,4347.69,4277.95,3982.56,1655,1692,2.268,0,0,0,0,
126,4449.23,4030.77,4254.36,4171.28,3989.74,3599.49,4431.79,4429.74,4734.87,4487.69,4544.1,4352.82,4271.28,3965.13,1654,1694,2.275,0,0,0,0,
127,4470.26,4017.95,4265.64,4157.44,3992.82,3603.59,4441.03,4440,4749.23,4499.49,4548.21,4356.92,4285.64,3969.23,1654,1694,2.283,0,0,0,0,
128,4476.92,3969.74,4263.08,4134.87,3987.69,3602.05,4441.03,4436.41,4745.13,4493.33,4544.1,4349.74,4277.44,3994.36,1653,1694,2.291,0,0,0,0,
0,4442.05,3988.72,4239.49,4146.15,3985.13,3595.9,4429.74,4424.62,4729.23,4490.26,4532.82,4333.33,4264.62,3966.15,1653,1695,2.3,0,0,0,0,
1,4418.97,4057.95,4224.62,4171.79,3992.82,3601.54,4436.41,4425.13,4738.46,4496.92,4537.95,4326.67,4278.46,3934.36,1653,1692,2.307,0,0,0,0,
2,4435.38,4051.79,4235.38,4165.64,4001.03,3609.74,4446.15,4432.31,4761.03,4488.21,4545.13,4329.74,4286.67,3947.69,1653,1692,2.315,0,0,0,0,
3,4456.41,4008.72,4247.18,4154.36,3998.46,3605.13,4442.56,4437.44,4764.62,4474.87,4536.92,4341.03,4266.15,3964.1,1654,1689,2.322,0,0,0,0,
4,4468.21,4011.79,4255.9,4147.18,3990.26,3603.08,4443.08,4440.51,4763.08,4481.54,4541.54,4354.36,4260,3974.36,1655,1690,2.331,0,0,0,0,
5,4471.28,4016.92,4266.15,4132.82,3986.15,3604.62,4443.08,4441.54,4763.59,4495.9,4559.49,4362.05,4282.56,4006.67,1656,1690,2.338,0,0,0,0,
6,4464.1,4002.56,4265.64,4138.97,3984.1,3596.92,4437.44,4440.51,4756.41,4494.87,4555.38,4370.26,4282.05,4014.87,1655,1692,2.346,0,0,0,0,
7,4457.95,4001.03,4247.69,4167.69,3989.23,3588.21,4437.44,4441.54,4750.77,4488.72,4546.15,4359.49,4271.79,3957.44,1657,1693,2.353,0,0,0,0,
8,4457.95,4010.26,4238.97,4172.31,3996.41,3594.36,4442.05,4442.56,4754.87,4491.79,4553.85,4343.59,4281.03,3938.97,1657,1694,2.361,0,0,0,0,
9,4468.21,4022.56,4258.46,4162.56,3989.74,3602.56,4442.05,4442.05,4760.51,4492.31,4548.72,4356.92,4282.56,3992.82,1656,1695,2.37,0,0,0,0,
10,4475.38,4025.64,4269.74,4169.74,3988.72,3596.92,4443.59,4442.05,4763.08,4490.77,4534.36,4373.85,4276.41,4001.54,1655,1696,2.377,0,0,0,0,
11,4462.05,4022.05,4258.97,4161.03,4000,3589.23,4443.59,4443.59,4764.1,4496.92,4550.77,4361.03,4285.64,3974.36,1655,1697,2.386,0,0,0,0,
12,4452.31,4008.21,4255.38,4133.85,3995.9,3589.74,4440,4443.08,4762.56,4495.38,4566.67,4351.28,4285.13,3995.38,1654,1696,2.393,0,0,0,0,
13,4468.72,3990.26,4269.23,4124.1,3981.03,3591.79,4443.08,4444.1,4764.62,4486.15,4551.28,4367.69,4266.15,4013.85,1654,1697,2.4,0,0,0,0,
14,4470.77,4009.23,4269.74,4129.74,3982.05,3589.74,4442.56,4444.62,4762.56,4487.18,4547.69,4369.23,4262.05,3968.72,1654,1694,2.408,0,0,0,0,
15,4455.9,4023.08,4252.82,4150.77,3990.77,3585.64,4432.31,4437.95,4750.77,4485.64,4555.9,4361.54,4265.64,3968.21,1652,1693,2.416,0,0,0,0,
16,4466.67,3986.15,4248.72,4181.03,3984.62,3587.69,4433.85,4435.38,4747.18,4471.79,4538.46,4368.72,4249.74,4034.87,1654,1692,2.425,0,0,0,0,
17,4465.64,3976.92,4251.79,4157.95,3971.28,3590.26,4440.51,4441.54,4751.79,4474.87,4531.79,4360.51,4243.59,4028.72,1654,1691,2.432,0,0,0,0,
18,4434.87,4013.85,4248.21,4102.56,3982.05,3588.21,4439.49,4444.1,4750.77,4493.85,4552.31,4340,4268.21,3977.44,1656,1691,2.44,0,0,0,0,
19,4442.05,4007.18,4243.08,4130.26,4008.21,3595.38,4440.51,4445.13,4755.38,4497.95,4564.1,4341.54,4298.97,3942.05,1655,1689,2.447,0,0,0,0,
20,4479.49,3995.38,4244.1,4187.18,4010.26,3605.64,4446.67,4449.74,4767.18,4491.28,4552.31,4364.1,4294.36,3962.05,1656,1691,2.455,0,0,0,0,
21,4476.92,4007.18,4249.23,4163.59,3984.62,3593.85,4444.1,4449.23,4762.56,4490.26,4534.36,4372.31,4252.31,4034.36,1657,1691,2.464,0,0,0,0,
22,4453.33,3986.67,4248.72,4129.74,3972.31,3581.54,4439.49,4443.08,4749.74,4493.33,4538.97,4352.82,4241.03,4024.1,1657,1693,2.472,0,0,0,0,
23,4448.72,3967.18,4236.92,4157.44,3988.21,3590.26,4443.59,4443.59,4750.26,4493.85,4554.36,4336.92,4274.36,3936.41,1657,1694,2.48,0,0,0,0,
24,4442.05,3994.36,4226.67,4168.72,3990.77,3591.79,4444.1,4443.08,4746.67,4486.15,4542.56,4345.13,4277.44,3934.87,1657,1694,2.486,0,0,0,0,
25,4445.13,4015.38,4238.97,4144.62,3974.36,3587.18,4442.05,4438.46,4738.97,4474.87,4525.13,4364.1,4237.95,4011.79,1656,1693,2.495,0,0,0,0,
26,4453.85,3990.26,4242.56,4142.56,3975.9,3596.41,4445.64,4442.56,4749.23,4475.9,4548.21,4358.46,4249.23,3988.72,1656,1692,2.502,0,0,0,0,
27,4448.72,3953.33,4230.26,4138.97,3978.46,3595.9,4441.03,4439.49,4752.31,4476.41,4565.13,4331.79,4290.77,3940.51,1654,1692,2.51,0,0,0,0,
28,4435.9,3967.18,4231.28,4128.21,3972.31,3589.23,4432.82,4430.26,4738.97,4468.72,4538.97,4326.15,4266.67,3967.18,1653,1693,2.518,0,0,0,0,
29,4420,4024.62,4231.28,4158.46,3985.13,3598.97,4437.95,4434.36,4742.05,4476.41,4535.38,4342.56,4234.87,3972.31,1653,1693,2.526,0,0,0,0,
30,4431.28,4016.92,4225.13,4194.36,3999.49,3604.62,4445.64,4444.1,4755.9,4491.28,4560,4345.13,4267.18,3955.38,1653,1694,2.533,0,0,0,0,
31,4469.74,3957.95,4240.51,4179.49,3988.21,3594.36,4442.05,4443.59,4752.31,4491.79,4563.59,4347.18,4298.97,3977.95,1653,1695,2.541,0,0,0,0,
32,4481.03,3965.64,4252.31,4153.85,3978.46,3589.74,4440.51,4442.05,4747.18,4491.28,4566.15,4363.59,4281.54,4011.28,1654,1696,2.55,0,0,0,0,
33,4447.18,3995.38,4234.87,4148.21,3975.38,3593.85,4444.1,4445.13,4752.31,4498.46,4574.36,4362.56,4247.69,3980,1657,1695,2.557,0,0,0,0,
34,4428.21,3964.1,4233.85,4129.23,3973.85,3590.26,4442.05,4443.08,4752.31,4492.31,4559.49,4352.31,4242.05,3954.87,1657,1696,2.565,0,0,0,0,
35,4448.72,3968.21,4243.59,4142.05,3986.15,3589.74,4444.1,4442.56,4749.23,4476.92,4557.44,4350.26,4267.69,4000,1659,1694,2.572,0,0,0,0,
36,4468.21,4023.59,4235.38,4189.23,3993.33,3595.9,4447.18,4443.59,4750.77,4475.9,4572.31,4356.92,4266.15,4027.69,1660,1692,2.58,0,0,0,0,
37,4465.64,4007.18,4234.87,4166.15,3987.18,3596.92,4445.13,4442.56,4749.23,4476.41,4544.62,4373.33,4234.87,4004.1,1660,1688,2.588,0,0,0,0,
38,4454.87,3970.26,4241.03,4138.97,3986.67,3596.41,4448.72,4447.69,4753.85,4476.92,4521.03,4382.56,4241.54,3988.21,1659,1687,2.596,0,0,0,0,
39,4462.56,3967.18,4234.36,4166.67,3972.31,3588.72,4443.59,4443.59,4752.31,4482.05,4563.59,4361.54,4258.97,3996.41,1658,1688,2.605,0,0,0,0,
40,4455.38,3962.56,4228.72,4144.62,3946.15,3574.36,4425.64,4422.56,4731.79,4484.1,4582.56,4331.28,4240.51,3970.77,1656,1689,2.612,0,0,0,0,
41,4433.85,3966.67,4230.77,4109.23,3961.03,3577.44,4426.67,4420,4730.26,4487.69,4543.59,4333.85,4253.33,3937.95,1654,1693,2.62,0,0,0,0,
42,4432.82,3994.36,4233.33,4157.44,3996.92,3594.87,4445.64,4443.08,4753.33,4495.9,4537.95,4354.87,4287.18,3944.62,1653,1694,2.627,0,0,0,0,
43,4441.54,4004.62,4232.82,4194.36,3995.9,3593.85,4448.21,4446.67,4754.87,4495.9,4577.44,4361.03,4269.23,3973.85,1651,1697,2.636,0,0,0,0,
44,4461.03,3957.44,4231.28,4149.74,3969.74,3584.1,4440,4428.72,4736.41,4484.1,4583.08,4344.1,4237.44,3986.67,1652,1696,2.643,0,0,0,0,
45,4463.59,3934.87,4231.79,4134.36,3967.18,3590.26,4443.08,4425.64,4736.92,4472.82,4552.82,4329.74,4250.26,3961.54,1650,1696,2.651,0,0,0,0,
46,4443.08,3978.46,4227.69,4158.46,3988.21,3593.33,4445.13,4431.79,4746.15,4460.51,4554.36,4334.36,4264.62,3964.1,1652,1696,2.658,0,0,0,0,
47,4427.69,4013.33,4217.95,4164.1,4003.59,3587.18,4444.1,4437.44,4748.21,4461.03,4583.08,4342.56,4250.26,3993.85,1651,1694,2.666,0,0,0,0,
48,4425.13,3991.79,4212.82,4160.51,3995.38,3588.21,4443.59,4437.95,4748.21,4484.1,4590.26,4339.49,4264.1,3940,1652,1695,2.675,0,0,0,0,
49,4436.41,3977.44,4215.38,4169.74,3982.56,3589.74,4442.56,4434.36,4749.74,4494.36,4570.77,4333.85,4276.41,3897.95,1654,1694,2.682,0,0,0,0,
50,4471.79,3965.64,4234.36,4180,3990.77,3583.59,4444.62,4442.05,4755.9,4483.59,4561.03,4361.54,4230.26,4007.18,1654,1695,2.69,0,0,0,0,
51,4467.18,3904.62,4248.72,4123.08,3964.1,3570.26,4436.92,4438.97,4742.56,4461.54,4546.15,4371.79,4194.87,4041.03,1654,1695,2.698,0,0,0,0,
52,4415.9,3898.97,4235.38,4078.46,3937.44,3571.79,4430.26,4430.77,4735.9,4457.44,4515.9,4352.31,4212.82,3932.31,1655,1695,2.706,0,0,0,0,
53,4428.21,3967.69,4223.59,4141.54,3983.59,3591.79,4451.28,4451.28,4758.46,4482.56,4532.31,4364.62,4225.13,3955.38,1656,1694,2.713,0,0,0,0,
54,4456.92,4009.23,4215.9,4216.92,4027.69,3601.54,4463.59,4463.08,4765.13,4500.51,4589.74,4371.79,4231.79,4036.92,1655,1696,2.721,0,0,0,0,
55,4425.64,4009.23,4197.44,4210.26,4014.36,3595.9,4447.69,4443.59,4749.74,4491.79,4598.46,4331.28,4265.13,3972.82,1656,1694,2.73,0,0,0,0,
56,4421.54,3948.21,4215.9,4124.1,3988.72,3587.18,4441.54,4435.38,4746.15,4478.97,4552.31,4318.97,4256.92,3896.41,1655,1694,2.737,0,0,0,0,
57,4446.67,3887.18,4245.64,4061.54,3985.13,3581.54,4448.72,4439.49,4744.1,4469.23,4533.85,4352.31,4212.82,3929.74,1656,1695,2.745,0,0,0,0,
58,4436.41,3926.67,4218.97,4129.74,3997.95,3585.13,4444.1,4430.26,4730.77,4464.1,4558.46,4355.38,4210.26,3979.49,1655,1694,2.752,0,0,0,0,
59,4421.03,3999.49,4187.69,4233.33,4010.26,3596.92,4440.51,4424.1,4728.72,4462.05,4577.95,4334.87,4237.95,3982.05,1656,1695,2.76,0,0,0,0,
60,4422.56,3990.77,4197.44,4214.87,4009.74,3600,4451.28,4432.82,4741.03,4452.82,4563.08,4338.46,4232.82,3962.56,1657,1694,2.768,0,0,0,0,
61,4438.97,3930.26,4230.77,4137.44,4000,3595.9,4461.54,4445.13,4760,4455.9,4542.56,4351.79,4225.13,3941.03,1656,1694,2.776,0,0,0,0,
62,4461.03,3915.9,4253.85,4126.15,3993.33,3590.26,4456.92,4449.23,4766.15,4481.03,4558.46,4347.18,4236.41,3953.33,1657,1694,2.784,0,0,0,0,
63,4448.21,3950.26,4241.03,4121.54,3985.13,3578.97,4441.54,4441.54,4755.9,4485.64,4571.79,4350.26,4213.85,3987.18,1656,1694,2.791,0,0,0,0,
64,4422.05,3985.13,4215.9,4109.74,3986.15,3580,4440.51,4441.03,4757.95,4466.67,4557.44,4378.46,4205.64,3994.36,1654,1693,2.8,0,0,0,0,
65,4423.59,3988.72,4212.31,4151.79,4002.05,3591.28,4455.38,4450.26,4768.72,4475.38,4565.13,4375.9,4247.18,3960.51,1653,1694,2.807,0,0,0,0,
66,4441.03,3985.13,4219.49,4209.74,4024.62,3595.38,4461.03,4453.85,4774.87,4507.18,4591.28,4353.33,4263.59,3965.13,1653,1693,2.816,0,0,0,0,
67,4465.64,3982.05,4232.31,4202.56,4036.92,3595.38,4457.95,4458.97,4777.95,4509.74,4587.18,4364.62,4249.23,4005.13,1650,1694,2.823,0,0,0,0,
68,4466.15,3958.46,4238.97,4165.64,4028.21,3599.49,4459.49,4462.56,4774.36,4491.28,4573.33,4367.69,4260.51,3964.1,1651,1695,2.831,0,0,0,0,
69,4433.33,3969.23,4219.49,4178.46,4018.46,3596.41,4457.44,4452.82,4761.54,4481.54,4589.74,4329.74,4273.33,3905.64,1650,1694,2.838,0,0,0,0,
70,4450.26,3985.13,4229.74,4182.05,4012.31,3590.26,4448.21,4441.03,4751.79,4470.26,4588.72,4337.44,4225.64,3991.28,1651,1695,2.847,0,0,0,0,
71,4471.28,3966.15,4254.36,4124.62,4007.18,3586.67,4443.08,4441.54,4750.26,4458.97,4543.59,4390.26,4177.44,4072.82,1653,1693,2.855,0,0,0,0,
72,4422.05,3955.38,4228.21,4119.49,3997.95,3578.46,4437.95,4435.38,4741.54,4450.77,4524.62,4367.69,4196.92,3961.54,1654,1691,2.862,0,0,0,0,
73,4409.23,3968.21,4210.26,4185.64,3990.26,3575.9,4433.85,4423.59,4734.87,4445.64,4568.21,4310.26,4233.33,3858.97,1656,1690,2.87,0,0,0,0,
74,4451.28,3973.33,4231.28,4188.21,4009.23,3586.15,4438.97,4438.46,4748.72,4476.92,4606.67,4327.69,4230.77,3922.56,1657,1690,2.877,0,0,0,0,
75,4450.77,3985.64,4236.41,4141.03,4040.51,3600,4449.74,4462.56,4768.21,4509.23,4594.87,4372.31,4206.15,4017.95,1658,1691,2.885,0,0,0,0,
76,4440.51,4015.9,4229.23,4166.15,4046.15,3600,4460,4466.15,4775.38,4489.74,4578.46,4373.85,4222.05,4029.74,1657,1694,2.894,0,0,0,0,
77,4448.72,3991.28,4230.26,4180,4017.44,3590.77,4454.36,4454.36,4769.23,4463.59,4557.44,4359.49,4233.33,3967.69,1657,1695,2.901,0,0,0,0,
78,4434.87,3956.92,4230.77,4120,4000.51,3585.64,4442.56,4447.18,4762.05,4474.36,4538.97,4365.13,4205.64,3914.87,1654,1696,2.91,0,0,0,0,
79,4449.74,3978.97,4246.15,4118.97,4015.38,3590.77,4451.79,4457.44,4771.28,4491.28,4574.87,4366.15,4218.46,3940,1655,1694,2.917,0,0,0,0,
80,4474.87,3978.97,4253.85,4166.67,4014.87,3592.31,4458.46,4456.41,4773.85,4478.46,4603.08,4357.95,4238.97,4016.92,1654,1693,2.925,0,0,0,0,
81,4446.15,3970.77,4222.05,4191.28,4004.62,3586.15,4445.13,4442.05,4756.41,4459.49,4576.92,4351.28,4218.97,4029.23,1654,1691,2.932,0,0,0,0,
82,4432.82,3997.44,4221.03,4178.97,4020.51,3588.21,4448.21,4446.67,4751.79,4468.21,4566.67,4350.77,4209.23,3962.56,1654,1690,2.941,0,0,0,0,
83,4449.23,4006.67,4250.77,4116.92,4023.08,3591.79,4461.03,4453.85,4765.13,4481.03,4575.38,4349.74,4222.05,3896.92,1655,1689,2.948,0,0,0,0,
84,4446.67,3993.33,4243.59,4104.62,4013.33,3591.79,4459.49,4448.21,4770.26,4466.67,4564.62,4358.97,4212.31,3954.87,1654,1691,2.956,0,0,0,0,
85,4452.82,3990.26,4233.33,4171.28,4028.21,3592.31,4456.92,4454.87,4772.82,4473.85,4557.44,4388.72,4212.31,4064.62,1656,1692,2.964,0,0,0,0,
86,4461.03,3984.1,4234.36,4203.59,4025.13,3588.72,4449.23,4453.33,4767.18,4496.41,4572.31,4366.67,4241.54,3999.49,1654,1693,2.971,0,0,0,0,
87,4453.85,3996.92,4234.87,4173.33,4015.38,3593.85,4447.18,4442.05,4758.46,4483.59,4590.77,4334.87,4240.51,3911.79,1656,1694,2.98,0,0,0,0,
88,4465.13,4018.97,4245.13,4169.74,4043.59,3604.1,4457.44,4453.85,4769.74,4477.95,4592.82,4369.74,4236.92,3966.15,1655,1694,2.987,0,0,0,0,
89,4462.56,3997.95,4236.41,4157.95,4044.62,3596.92,4453.33,4456.92,4776.92,4492.82,4590.26,4370.77,4261.54,3998.97,1655,1695,2.996,0,0,0,0,
90,4420,4001.54,4211.79,4130.26,4011.28,3586.15,4440,4439.49,4765.13,4484.1,4587.18,4318.46,4260,3944.1,1656,1693,3.003,0,0,0,0,
91,4418.97,4024.1,4224.1,4148.21,4018.97,3590.26,4445.64,4441.03,4764.1,4466.67,4568.72,4327.69,4217.44,3944.1,1654,1694,3.011,0,0,0,0,
92,4450.26,3993.85,4246.67,4140,4036.92,3592.31,4454.36,4449.74,4775.38,4482.05,4572.82,4369.23,4207.18,3978.97,1655,1694,3.018,0,0,0,0,
93,4443.08,3976.41,4231.79,4120.51,4024.1,3588.72,4449.23,4444.1,4773.33,4489.74,4589.23,4342.05,4244.1,3936.92,1654,1694,3.026,0,0,0,0,
94,4444.1,3980.51,4230.26,4154.36,4014.87,3592.31,4446.67,4441.54,4754.87,4455.9,4555.38,4331.79,4211.79,3946.67,1654,1692,3.035,0,0,0,0,
95,4454.87,3973.85,4240.51,4172.82,4013.33,3593.33,4447.69,4441.03,4747.18,4442.05,4532.31,4370.26,4153.85,4022.05,1653,1691,3.042,0,0,0,0,
96,4414.87,3980.51,4224.1,4132.31,4007.18,3588.72,4445.13,4439.49,4756.92,4470.26,4552.82,4355.38,4187.18,3978.46,1654,1690,3.05,0,0,0,0,
97,4388.72,4017.95,4206.67,4137.44,4018.46,3590.26,4451.28,4450.26,4774.87,4487.69,4553.85,4318.46,4244.1,3873.33,1653,1690,3.057,0,0,0,0,
98,4424.1,4028.21,4215.38,4165.64,4031.28,3592.31,4455.38,4454.87,4772.82,4470.77,4555.38,4319.49,4255.38,3851.79,1654,1693,3.066,0,0,0,0,
99,4455.38,3977.44,4241.54,4114.87,4019.49,3587.69,4446.15,4444.62,4755.38,4459.49,4585.13,4338.97,4239.49,3924.62,1653,1694,3.073,0,0,0,0,
100,4446.15,3968.72,4249.23,4125.64,4018.97,3586.67,4446.67,4444.1,4753.85,4464.1,4580,4355.9,4203.59,4034.87,1653,1697,3.081,0,0,0,0,
101,4425.64,4060,4226.67,4209.23,4037.44,3594.36,4459.49,4456.92,4763.59,4469.74,4544.1,4362.05,4200,4044.1,1655,1697,3.09,0,0,0,0,
102,4430.26,4055.9,4227.18,4174.87,4031.28,3596.92,4459.49,4459.49,4769.74,4473.33,4553.33,4356.41,4231.28,3931.79,1653,1698,3.096,0,0,0,0,
103,4461.03,3927.18,4261.54,4115.38,4022.56,3591.79,4458.97,4460.51,4774.87,4485.13,4580.51,4362.05,4232.82,3900.51,1654,1696,3.104,0,0,0,0,
104,4458.46,3942.05,4264.1,4136.92,4026.67,3589.74,4460,4461.03,4773.33,4496.92,4550.26,4381.03,4209.74,4004.62,1653,1695,3.112,0,0,0,0,
105,4423.08,4073.85,4233.33,4136.92,4022.05,3589.23,4449.74,4449.74,4763.08,4488.21,4528.72,4366.67,4227.69,4020.51,1654,1695,3.121,0,0,0,0,
106,4426.15,4049.74,4228.72,4111.79,4019.49,3589.23,4446.67,4443.59,4762.56,4483.59,4590.77,4330.77,4268.72,3915.38,1653,1695,3.128,0,0,0,0,
107,4445.13,3966.67,4238.46,4153.85,4024.1,3588.72,4451.28,4448.21,4766.15,4486.67,4615.9,4331.79,4254.87,3898.97,1653,1695,3.136,0,0,0,0,
108,4435.9,4002.05,4237.44,4182.56,4028.21,3588.21,4455.9,4455.38,4765.13,4479.49,4568.72,4366.67,4219.49,3990.26,1652,1693,3.143,0,0,0,0,
109,4433.33,4020,4245.13,4135.9,4030.26,3589.23,4458.97,4456.92,4757.44,4471.28,4552.82,4390.26,4206.15,4029.23,1653,1693,3.151,0,0,0,0,
110,4453.85,3975.38,4253.33,4132.31,4024.1,3587.69,4452.31,4449.23,4740,4471.28,4532.31,4393.33,4193.85,3962.05,1654,1691,3.16,0,0,0,0,
111,4460.51,3993.85,4247.18,4155.9,4028.72,3587.18,4450.26,4451.79,4748.21,4480.51,4520,4385.64,4215.38,3941.54,1653,1692,3.167,0,0,0,0,
112,4437.95,4060,4236.92,4156.92,4056.92,3595.38,4463.08,4466.67,4773.85,4496.41,4590.77,4346.67,4286.15,3965.64,1654,1690,3.176,0,0,0,0,
113,4416.41,4070.77,4229.23,4157.95,4053.33,3591.79,4460,4460.51,4765.13,4499.49,4628.21,4317.95,4296.92,3942.56,1653,1690,3.182,0,0,0,0,
114,4429.23,4015.9,4235.38,4147.18,4014.87,3576.92,4441.03,4443.59,4738.97,4482.05,4576.92,4343.08,4238.46,3926.67,1654,1690,3.19,0,0,0,0,
115,4455.38,3988.72,4251.28,4154.36,4024.1,3578.97,4448.21,4454.36,4752.31,4483.59,4576.41,4364.1,4248.21,3943.08,1654,1690,3.198,0,0,0,0,
116,4455.38,4030.26,4249.74,4182.56,4055.9,3594.36,4466.15,4466.67,4774.87,4495.9,4595.9,4371.79,4255.9,4010.77,1655,1690,3.206,0,0,0,0,
117,4448.21,4053.33,4236.41,4177.95,4038.97,3588.72,4456.92,4455.38,4754.87,4483.59,4554.87,4385.13,4212.31,4038.46,1654,1691,3.215,0,0,0,0,
118,4438.46,4007.69,4241.54,4105.13,4019.49,3576.41,4438.97,4448.21,4738.46,4469.74,4547.69,4370.77,4227.18,3946.15,1655,1693,3.223,0,0,0,0,
119,4429.74,3992.31,4251.79,4076.41,4037.95,3585.13,4448.72,4460.51,4756.41,4477.95,4585.13,4348.21,4263.59,3904.62,1655,1694,3.229,0,0,0,0,
120,4440,4025.13,4249.74,4144.62,4052.31,3595.38,4464.62,4464.62,4766.67,4494.87,4584.1,4353.33,4252.82,3971.28,1655,1696,3.237,0,0,0,0,
121,4441.03,4043.08,4244.62,4186.15,4040,3588.72,4451.79,4452.31,4748.72,4491.79,4569.74,4363.08,4239.49,3990.77,1653,1695,3.245,0,0,0,0,
122,4430.26,4023.08,4243.08,4157.95,4030.77,3583.08,4438.46,4451.28,4746.15,4478.46,4566.15,4359.49,4232.82,3946.67,1653,1696,3.253,0,0,0,0,
123,4448.72,3995.9,4247.69,4147.18,4038.97,3588.21,4449.74,4463.59,4766.67,4483.08,4564.62,4368.21,4225.13,3964.62,1653,1693,3.261,0,0,0,0,
124,4469.74,4013.33,4248.21,4178.46,4046.67,3591.28,4454.36,4465.13,4769.23,4494.36,4574.36,4378.46,4250.77,4006.67,1651,1694,3.268,0,0,0,0,
125,4445.64,4052.82,4235.9,4178.97,4043.59,3587.18,4441.54,4456.41,4755.38,4490.77,4573.33,4358.46,4280,3968.72,1652,1695,3.277,0,0,0,0,
126,4429.23,4045.13,4233.85,4129.23,4034.87,3586.67,4444.62,4455.38,4751.28,4489.23,4559.49,4334.87,4264.62,3910.26,1651,1694,3.285,0,0,0,0,
127,4446.15,4010.77,4254.87,4103.59,4025.64,3588.72,4456.41,4455.9,4750.77,4489.74,4562.56,4349.74,4225.13,3948.21,1651,1694,3.292,0,0,0,0,
128,4443.59,4033.33,4255.38,4149.23,4035.9,3590.26,4457.95,4453.33,4750.26,4483.59,4571.79,4372.82,4221.54,4001.54,1650,1693,3.3,0,0,0,0,
0,4440,4031.28,4241.54,4181.54,4047.69,3590.77,4457.95,4459.49,4756.92,4486.67,4575.9,4362.05,4251.28,3973.33,1650,1693,3.307,0,0,0,0,
1,4454.36,3973.85,4251.79,4116.92,4031.28,3588.72,4454.36,4459.49,4754.87,4489.74,4586.15,4349.23,4242.05,3968.21,1651,1691,3.316,0,0,0,0,
2,4454.87,4001.54,4262.05,4087.18,4026.15,3586.67,4448.72,4454.36,4746.67,4489.23,4588.21,4367.69,4224.1,4005.64,1651,1691,3.323,0,0,0,0,
3,4449.74,4087.69,4254.87,4165.13,4060.51,3590.26,4457.95,4466.67,4760,4496.92,4558.97,4391.28,4260.51,3971.28,1651,1691,3.331,0,0,0,0,
4,4460,4065.13,4251.79,4194.36,4080,3592.82,4465.13,4482.05,4772.82,4498.46,4538.46,4400.51,4274.36,3961.03,1653,1690,3.34,0,0,0,0,
5,4468.21,3984.62,4257.95,4151.28,4052.82,3589.23,4456.92,4471.79,4757.95,4495.9,4572.82,4380,4256.41,4001.54,1652,1690,3.348,0,0,0,0,
6,4448.21,4005.13,4257.95,4141.03,4036.41,3590.26,4454.36,4455.38,4745.13,4492.31,4606.67,4341.03,4269.74,3982.05,1652,1692,3.355,0,0,0,0,
7,4436.92,4043.08,4254.87,4161.54,4058.46,3594.87,4457.95,4454.87,4746.15,4492.31,4576.41,4345.13,4248.72,3953.33,1652,1692,3.363,0,0,0,0,
8,4430.77,4035.38,4235.9,4148.72,4064.62,3591.28,4447.18,4449.23,4735.9,4489.74,4534.87,4366.15,4200,3929.23,1652,1692,3.371,0,0,0,0,
9,4413.85,4038.97,4214.36,4117.95,4038.46,3587.69,4440.51,4441.03,4730.26,4472.31,4545.13,4352.31,4220.51,3935.38,1651,1690,3.379,0,0,0,0,
10,4431.28,4042.56,4234.36,4146.15,4043.08,3600,4453.33,4456.41,4751.79,4476.92,4578.97,4349.23,4275.9,3993.85,1651,1690,3.386,0,0,0,0,
11,4462.05,4037.95,4258.46,4180.51,4074.36,3607.69,4466.15,4479.49,4772.31,4513.85,4605.64,4369.74,4298.97,3999.49,1650,1688,3.395,0,0,0,0,
12,4459.49,4045.13,4251.28,4148.21,4066.15,3593.85,4462.56,4480.51,4770.77,4529.74,4616.41,4359.49,4305.64,3931.79,1650,1690,3.401,0,0,0,0,
13,4458.97,4029.74,4252.82,4130.26,4052.82,3582.56,4454.87,4469.23,4761.54,4508.21,4586.67,4351.79,4273.33,3932.82,1651,1689,3.41,0,0,0,0,
14,4469.23,4011.28,4263.08,4161.54,4067.69,3589.23,4458.46,4469.23,4754.87,4485.64,4546.67,4384.1,4220,4001.54,1649,1693,3.417,0,0,0,0,
15,4437.44,4055.9,4241.03,4160,4071.28,3590.77,4461.03,4470.26,4747.18,4478.97,4552.31,4375.9,4242.56,3977.95,1651,1694,3.425,0,0,0,0,
16,4416.41,4073.33,4225.13,4139.49,4064.1,3585.64,4451.28,4458.97,4737.95,4489.23,4582.05,4335.9,4273.33,3930.26,1650,1694,3.433,0,0,0,0,
17,4453.85,4015.9,4247.69,4141.54,4064.62,3585.13,4440.51,4444.1,4726.15,4481.54,4576.92,4335.9,4235.9,3946.15,1650,1697,3.44,0,0,0,0,
18,4465.64,3989.74,4258.46,4122.56,4052.82,3581.03,4442.05,4443.08,4721.03,4451.79,4560.51,4361.54,4217.44,3965.13,1650,1697,3.448,0,0,0,0,
19,4445.64,4025.64,4246.67,4107.69,4040,3572.82,4445.64,4452.82,4733.85,4458.97,4566.67,4366.15,4256.41,3956.41,1650,1697,3.457,0,0,0,0,
20,4441.54,4057.44,4244.62,4148.21,4053.85,3574.36,4446.67,4457.44,4743.59,4475.9,4572.31,4353.85,4259.49,3963.08,1650,1697,3.465,0,0,0,0,
21,4450.77,4065.64,4254.36,4186.67,4077.44,3584.62,4456.41,4466.15,4755.38,4475.38,4583.08,4373.85,4234.36,3990.77,1650,1698,3.473,0,0,0,0,
22,4464.62,4042.05,4268.72,4165.13,4071.79,3591.28,4466.67,4478.46,4767.69,4488.72,4582.56,4395.9,4255.38,3978.46,1650,1697,3.481,0,0,0,0,
23,4473.85,4016.41,4272.82,4145.64,4055.38,3590.77,4463.08,4476.41,4758.97,4494.36,4576.92,4376.92,4275.38,3973.33,1650,1697,3.487,0,0,0,0,
24,4464.62,4032.82,4261.03,4158.97,4055.9,3588.72,4459.49,4470.26,4752.82,4477.44,4575.9,4365.13,4246.15,3993.85,1651,1695,3.496,0,0,0,0,
25,4450.26,4048.21,4256.41,4149.74,4060,3591.79,4468.21,4474.36,4765.13,4472.82,4557.95,4383.59,4222.56,3984.62,1650,1694,3.503,0,0,0,0,
26,4448.72,4016.41,4260,4137.44,4065.64,3594.36,4471.28,4474.36,4763.08,4483.08,4558.46,4373.33,4250.77,3955.9,1651,1695,3.511,0,0,0,0,
27,4456.41,4016.41,4256.92,4149.23,4074.36,3590.77,4461.03,4460.51,4745.64,4473.85,4578.46,4348.21,4285.64,3944.1,1651,1694,3.52,0,0,0,0,
28,4482.56,4047.18,4268.21,4142.05,4061.54,3584.1,4452.82,4453.85,4744.62,4453.33,4574.36,4367.69,4253.33,3983.08,1651,1696,3.526,0,0,0,0,
29,4494.87,4029.74,4281.54,4129.23,4053.85,3585.64,4457.95,4465.13,4751.79,4458.46,4578.46,4389.23,4214.36,4023.59,1652,1694,3.535,0,0,0,0,
30,4466.15,4027.69,4262.56,4156.41,4070.77,3591.79,4466.15,4478.46,4754.87,4476.41,4588.21,4387.69,4235.38,3995.38,1651,1693,3.542,0,0,0,0,
31,4433.33,4036.92,4235.38,4151.28,4043.08,3576.41,4452.31,4467.18,4751.28,4462.05,4551.28,4371.79,4245.64,3946.15,1652,1692,3.55,0,0,0,0,
32,4434.36,3997.44,4243.59,4101.03,4009.23,3564.62,4442.56,4451.79,4749.23,4454.87,4541.54,4342.05,4242.56,3933.33,1652,1690,3.558,0,0,0,0,
33,4468.72,3991.28,4270.26,4112.31,4055.38,3584.1,4461.03,4469.23,4759.49,4483.08,4587.18,4341.54,4271.28,3948.72,1653,1691,3.566,0,0,0,0,
34,4484.62,4043.08,4273.85,4168.21,4095.9,3598.97,4471.28,4483.08,4758.97,4480.51,4591.79,4370.77,4276.41,3962.56,1652,1693,3.573,0,0,0,0,
35,4453.33,4063.59,4247.69,4186.15,4069.23,3587.18,4457.44,4463.59,4745.13,4450.26,4565.13,4369.74,4251.28,3953.33,1654,1694,3.581,0,0,0,0,
36,4434.36,4044.62,4235.38,4166.67,4054.36,3582.56,4453.33,4459.49,4745.13,4453.85,4563.08,4344.62,4253.85,3940,1653,1693,3.59,0,0,0,0,
37,4458.97,4032.82,4257.44,4138.46,4066.15,3589.74,4460.51,4472.31,4752.82,4465.13,4576.41,4349.23,4257.44,3969.74,1656,1692,3.598,0,0,0,0,
38,4461.54,4026.15,4260.51,4130.77,4061.03,3589.74,4460,4465.13,4748.21,4458.46,4587.18,4353.85,4248.72,3971.28,1655,1688,3.606,0,0,0,0,
39,4439.49,4039.49,4238.46,4153.33,4057.44,3586.15,4456.41,4455.9,4742.56,4460.51,4577.95,4335.38,4268.72,3922.56,1656,1689,3.613,0,0,0,0,
40,4446.15,4037.95,4243.08,4162.56,4054.36,3579.49,4447.69,4460.51,4742.56,4464.1,4559.49,4347.69,4266.67,3945.64,1656,1687,3.621,0,0,0,0,
41,4448.21,4019.49,4252.82,4147.69,4038.46,3571.79,4445.64,4459.49,4746.15,4460.51,4560.51,4364.1,4248.72,3962.05,1655,1690,3.628,0,0,0,0,
42,4438.97,4034.36,4245.64,4127.69,4042.56,3575.9,4457.44,4457.95,4751.28,4460,4566.15,4358.46,4244.1,3940,1655,1692,3.636,0,0,0,0,
43,4462.56,4028.21,4262.56,4107.69,4053.33,3582.56,4457.44,4466.15,4753.33,4460.51,4554.87,4373.85,4230.26,4002.56,1653,1694,3.645,0,0,0,0,
44,4484.1,3994.36,4282.56,4122.56,4043.59,3576.92,4445.13,4462.56,4744.1,4464.62,4536.41,4389.23,4222.56,4041.03,1653,1696,3.652,0,0,0,0,
45,4460.51,4004.1,4261.03,4140,4035.9,3571.28,4441.03,4450.77,4724.62,4454.87,4529.74,4383.08,4211.28,3987.18,1651,1696,3.66,0,0,0,0,
46,4436.92,4036.41,4240,4107.69,4038.46,3574.36,4444.1,4451.79,4722.05,4441.54,4551.28,4368.21,4226.15,3953.33,1650,1696,3.667,0,0,0,0,
47,4448.72,4033.33,4251.28,4106.67,4036.92,3581.54,4451.28,4460,4733.85,4456.92,4578.46,4341.54,4287.18,3949.23,1648,1696,3.675,0,0,0,0,
48,4456.92,4043.59,4252.31,4162.05,4052.31,3586.67,4458.97,4466.67,4734.36,4470.77,4562.05,4338.46,4288.72,3927.69,1649,1697,3.683,0,0,0,0,
49,4458.97,4058.97,4245.64,4178.46,4077.44,3592.31,4463.08,4474.36,4737.44,4459.49,4547.69,4369.23,4249.74,3950.77,1648,1694,3.691,0,0,0,0,
50,4475.9,3988.72,4268.21,4133.85,4060.51,3588.72,4463.08,4472.31,4744.62,4455.38,4568.72,4369.23,4257.95,4000.51,1648,1694,3.699,0,0,0,0,
51,4465.13,3948.72,4282.56,4092.31,4026.15,3576.92,4456.41,4456.92,4734.36,4461.03,4553.33,4348.72,4243.08,3980,1649,1690,3.706,0,0,0,0,
52,4443.59,4037.95,4268.72,4101.54,4043.59,3581.03,4453.33,4453.33,4731.79,4465.13,4525.64,4366.15,4220,3950.26,1650,1690,3.714,0,0,0,0,
53,4456.41,4081.03,4260,4133.85,4066.15,3591.28,4458.46,4460.51,4749.23,4485.13,4551.28,4369.74,4280,3954.87,1653,1688,3.723,0,0,0,0,
54,4482.56,4020,4277.44,4146.67,4048.21,3591.79,4455.38,4460,4752.31,4494.36,4566.67,4360,4297.95,3970.77,1653,1688,3.73,0,0,0,0,
55,4486.67,4003.08,4292.31,4151.79,4044.62,3587.18,4446.67,4458.46,4741.03,4477.95,4546.67,4376.92,4243.59,3985.64,1655,1690,3.738,0,0,0,0,
56,4466.67,4030.26,4277.95,4152.31,4068.72,3578.97,4444.1,4460,4737.95,4472.82,4564.62,4367.18,4264.1,3969.23,1656,1691,3.746,0,0,0,0,
57,4439.49,4041.03,4257.95,4127.18,4070.77,3575.38,4443.08,4459.49,4737.44,4475.38,4574.87,4346.15,4293.33,3928.21,1657,1694,3.753,0,0,0,0,
58,4435.9,4073.85,4256.92,4131.28,4054.36,3584.62,4448.21,4458.46,4732.82,4481.03,4537.44,4364.1,4255.9,3925.13,1655,1695,3.761,0,0,0,0,
59,4463.59,4073.33,4266.67,4169.23,4046.15,3588.72,4458.46,4461.03,4735.38,4489.74,4527.69,4387.69,4240,3994.36,1655,1698,3.769,0,0,0,0,
60,4465.64,4010.26,4267.69,4127.69,4034.36,3577.95,4453.33,4460,4738.97,4475.38,4542.56,4376.41,4241.54,4002.05,1653,1699,3.778,0,0,0,0,
61,4440.51,3982.05,4261.03,4078.46,4014.36,3570.26,4438.97,4445.64,4728.72,4447.18,4543.59,4354.36,4229.74,3939.49,1653,1699,3.786,0,0,0,0,
62,4440,4019.49,4257.44,4100.51,4016.41,3573.33,4441.03,4440.51,4723.59,4456.92,4557.44,4336.92,4270.77,3907.69,1651,1696,3.845,0,0,0,0,
63,4461.54,4041.54,4270.26,4128.72,4044.62,3586.15,4456.41,4462.56,4741.03,4485.13,4561.54,4349.23,4293.85,3932.31,1652,1694,3.846,0,0,0,0,
64,4476.92,4014.87,4285.13,4138.46,4062.05,3595.9,4464.62,4480.51,4753.33,4483.08,4533.85,4396.92,4225.13,4024.62,1652,1693,3.846,0,0,0,0,
65,4459.49,4005.13,4274.36,4132.82,4052.82,3588.72,4458.46,4471.79,4742.05,4470.77,4527.18,4395.38,4218.97,4025.64,1652,1690,3.846,0,0,0,0,
66,4436.92,4046.15,4256.41,4120,4048.72,3584.62,4447.69,4461.54,4732.31,4477.44,4553.85,4348.21,4292.82,3913.85,1651,1691,3.846,0,0,0,0,
67,4454.36,4047.18,4270.26,4126.67,4051.79,3586.15,4447.69,4462.05,4733.33,4482.05,4555.9,4352.82,4278.97,3927.18,1653,1693,3.846,0,0,0,0,
68,4484.1,4002.05,4292.82,4146.67,4050.26,3580.51,4457.44,4465.64,4734.87,4473.33,4543.59,4380.51,4252.82,3994.36,1652,1693,3.846,0,0,0,0,
69,4473.33,4019.49,4281.03,4116.92,4054.36,3575.9,4455.38,4463.59,4738.97,4473.85,4545.13,4358.46,4286.67,3946.67,1653,1694,3.85,0,0,0,0,
70,4452.82,4063.59,4258.46,4094.36,4047.18,3582.05,4441.03,4458.46,4735.38,4476.92,4519.49,4365.13,4222.56,3957.95,1654,1693,3.856,0,0,0,0,
71,4479.49,4023.08,4269.23,4129.23,4036.41,3589.23,4447.18,4468.21,4736.41,4470.77,4512.82,4403.59,4179.49,4030.26,1653,1692,3.864,0,0,0,0,
72,4489.23,3986.15,4282.05,4145.64,4049.74,3590.77,4461.03,4476.41,4751.28,4481.54,4563.59,4373.33,4285.13,3970.26,1655,1688,3.872,0,0,0,0,
73,4457.95,4041.54,4267.69,4142.05,4063.08,3588.21,4450.26,4463.08,4750.26,4494.36,4573.33,4332.31,4317.44,3915.9,1654,1684,3.878,0,0,0,0,
74,4450.26,4071.79,4260.51,4134.36,4048.72,3591.28,4442.56,4458.97,4740.51,4476.92,4530.26,4346.15,4254.36,3955.9,1654,1683,3.886,0,0,0,0,
75,4448.21,4008.72,4258.46,4100,4017.44,3587.69,4445.13,4457.95,4730.77,4454.87,4519.49,4343.08,4241.54,3960.51,1654,1681,3.894,0,0,0,0,
76,4435.38,3980,4249.74,4078.46,4017.95,3578.46,4441.54,4442.56,4714.87,4455.9,4535.38,4323.59,4237.95,3929.23,1655,1681,3.902,0,0,0,0,
77,4458.46,4025.13,4262.05,4117.95,4052.82,3581.54,4440,4443.59,4714.87,4457.44,4524.1,4361.54,4204.62,3958.97,1653,1683,3.911,0,0,0,0,
78,4483.08,4031.79,4279.49,4149.74,4064.62,3588.21,4446.15,4461.54,4733.85,4458.46,4509.74,4395.9,4217.95,3994.36,1654,1685,3.917,0,0,0,0,
79,4438.46,4029.74,4253.33,4140,4057.44,3593.85,4449.74,4462.56,4736.41,4471.79,4517.95,4358.97,4277.95,3921.54,1654,1685,3.925,0,0,0,0,
80,4412.82,4068.21,4228.72,4143.59,4070.26,3602.56,4457.95,4459.49,4732.31,4482.05,4552.31,4328.21,4309.23,3890.26,1653,1688,3.934,0,0,0,0,
81,4445.13,4057.95,4247.18,4147.18,4073.85,3598.46,4461.54,4462.05,4736.41,4471.79,4572.82,4342.56,4277.95,3976.92,1655,1687,3.942,0,0,0,0,
82,4455.9,4031.28,4257.44,4142.05,4059.49,3586.67,4453.85,4458.46,4733.85,4461.54,4537.95,4358.97,4238.97,3983.59,1654,1688,3.949,0,0,0,0,
83,4451.79,4036.92,4249.74,4132.31,4061.03,3589.23,4453.33,4457.95,4732.31,4470.26,4515.9,4355.38,4263.08,3908.72,1656,1687,3.958,0,0,0,0,
84,4450.77,4028.21,4251.28,4106.15,4063.59,3595.9,4455.9,4456.41,4731.28,4476.92,4537.44,4343.08,4277.95,3915.38,1654,1688,3.965,0,0,0,0,
85,4454.87,4020,4268.72,4100.51,4057.95,3592.31,4459.49,4455.9,4735.9,4473.85,4548.21,4355.38,4242.56,3974.87,1655,1688,3.973,0,0,0,0,
86,4456.41,4046.15,4275.9,4126.15,4052.82,3587.18,4457.44,4464.62,4750.26,4471.28,4533.85,4375.9,4233.33,3981.54,1654,1687,3.981,0,0,0,0,
87,4441.54,4044.62,4254.36,4144.1,4045.13,3586.67,4445.13,4463.08,4743.08,4467.18,4532.82,4355.9,4260,3951.28,1654,1688,3.988,0,0,0,0,
88,4436.41,4026.67,4239.49,4142.56,4051.28,3591.79,4447.69,4458.46,4732.82,4458.46,4554.36,4331.79,4267.69,3929.23,1654,1688,3.996,0,0,0,0,
89,4449.23,4035.38,4260,4120,4061.54,3592.31,4461.03,4468.72,4747.18,4468.21,4555.9,4355.38,4252.82,3946.15,1654,1689,4.003,0,0,0,0,
90,4449.74,4040.51,4272.82,4116.41,4062.56,3586.67,4459.49,4478.46,4757.95,4494.36,4550.26,4381.03,4258.46,3955.9,1655,1690,4.011,0,0,0,0,
91,4448.21,4044.1,4256.41,4146.15,4066.67,3584.62,4453.33,4473.85,4747.69,4497.44,4557.44,4377.44,4269.23,3968.21,1654,1693,4.02,0,0,0,0,
92,4457.44,4048.21,4252.82,4151.28,4070.26,3588.21,4457.44,4467.69,4745.13,4481.03,4548.72,4372.31,4262.56,3995.38,1656,1693,4.027,0,0,0,0,
93,4453.85,4038.97,4257.44,4136.41,4066.67,3590.26,4451.79,4462.56,4751.28,4472.31,4535.9,4353.33,4266.15,3951.28,1654,1695,4.036,0,0,0,0,
94,4470.77,4024.1,4265.13,4142.05,4062.56,3587.69,4442.56,4457.44,4745.13,4474.36,4543.08,4348.72,4255.9,3951.79,1656,1695,4.043,0,0,0,0,
95,4474.87,4021.54,4267.18,4126.15,4057.95,3585.13,4443.08,4457.44,4738.46,4474.36,4534.87,4366.15,4235.9,3998.46,1655,1694,4.051,0,0,0,0,
96,4428.72,4030.26,4249.23,4101.54,4056.41,3585.64,4445.13,4459.49,4740,4470.26,4518.46,4355.9,4252.31,3949.23,1656,1692,4.058,0,0,0,0,
97,4420.51,4032.31,4243.59,4122.05,4063.59,3587.18,4442.56,4456.92,4740.51,4470.77,4542.56,4332.82,4268.21,3898.46,1655,1689,4.066,0,0,0,0,
98,4440,4028.72,4244.1,4144.62,4063.59,3585.64,4434.36,4451.79,4733.85,4477.44,4561.54,4328.21,4263.08,3920.51,1655,1687,4.075,0,0,0,0,
99,4429.23,4037.44,4232.31,4135.38,4057.95,3585.13,4431.79,4452.31,4731.79,4483.08,4544.1,4330.26,4275.38,3934.87,1655,1685,4.082,0,0,0,0,
100,4442.05,4036.92,4244.62,4124.1,4057.95,3586.67,4435.38,4458.46,4742.05,4476.41,4540,4341.03,4271.79,3942.05,1655,1686,4.09,0,0,0,0,
101,4472.31,4013.33,4270.77,4129.74,4061.03,3586.67,4435.38,4462.05,4749.23,4477.95,4553.85,4363.59,4251.28,3963.08,1655,1685,4.097,0,0,0,0,
102,4458.46,4026.67,4257.44,4144.1,4066.15,3585.64,4431.79,4463.08,4752.82,4490.26,4561.03,4360,4282.05,3948.21,1656,1687,4.105,0,0,0,0,
103,4444.62,4064.1,4244.62,4149.74,4067.69,3586.15,4431.79,4462.56,4749.23,4484.62,4560,4351.79,4295.9,3975.9,1657,1687,4.113,0,0,0,0,
104,4450.26,4061.54,4250.77,4138.97,4066.67,3587.69,4430.26,4457.95,4740.51,4469.23,4539.49,4361.03,4247.18,3999.49,1655,1690,4.122,0,0,0,0,
105,4443.08,4042.05,4249.23,4124.62,4068.72,3588.21,4429.23,4456.41,4742.05,4472.82,4531.79,4351.28,4246.15,3926.67,1657,1690,4.13,0,0,0,0,
106,4456.41,4034.36,4257.44,4123.59,4076.41,3588.21,4435.38,4461.03,4750.26,4478.97,4557.95,4337.95,4294.36,3907.18,1655,1689,4.137,0,0,0,0,
107,4470.77,4021.54,4266.15,4127.69,4063.08,3585.13,4432.31,4458.97,4744.62,4464.1,4555.9,4346.67,4273.85,3963.59,1655,1689,4.145,0,0,0,0,
108,4440,4028.72,4246.15,4137.44,4045.13,3582.56,4425.13,4451.79,4732.31,4456.92,4531.28,4344.1,4235.9,3935.38,1654,1687,4.153,0,0,0,0,
109,4427.18,4047.18,4236.92,4150.77,4063.08,3588.72,4432.82,4453.85,4737.95,4471.79,4547.69,4334.36,4261.54,3896.41,1654,1689,4.161,0,0,0,0,
110,4457.95,4036.92,4259.49,4144.1,4085.13,3594.87,4446.67,4466.15,4750.77,4477.44,4566.15,4358.97,4268.72,3974.36,1654,1689,4.168,0,0,0,0,
111,4463.59,4030.77,4267.69,4133.85,4072.31,3590.26,4446.67,4473.85,4753.33,4472.82,4553.85,4372.31,4252.31,3994.87,1653,1691,4.176,0,0,0,0,
112,4447.18,4035.38,4257.95,4134.87,4059.49,3586.67,4443.08,4471.28,4752.31,4476.92,4548.21,4344.1,4264.1,3923.59,1653,1691,4.184,0,0,0,0,
113,4454.87,4023.08,4261.54,4127.18,4072.82,3587.18,4442.56,4470.26,4758.97,4491.28,4558.97,4335.9,4270.26,3926.15,1652,1693,4.191,0,0,0,0,
114,4463.08,4027.69,4264.1,4131.28,4080,3587.69,4438.46,4474.87,4767.18,4500.51,4566.67,4362.05,4260,3961.54,1654,1693,4.2,0,0,0,0,
115,4458.97,4049.23,4257.44,4153.33,4073.33,3590.26,4434.87,4471.79,4763.59,4495.9,4570.26,4366.15,4271.28,3946.15,1654,1692,4.207,0,0,0,0,
116,4464.1,4046.15,4260.51,4154.36,4071.79,3586.67,4432.31,4459.49,4749.74,4481.03,4566.67,4345.64,4285.64,3933.33,1655,1691,4.216,0,0,0,0,
117,4459.49,4043.59,4264.1,4131.28,4072.82,3576.92,4425.13,4453.33,4738.97,4470.77,4567.69,4334.87,4283.59,3937.95,1655,1692,4.222,0,0,0,0,
118,4456.92,4054.87,4263.08,4137.95,4076.92,3582.56,4426.67,4457.95,4747.18,4476.92,4577.44,4346.15,4278.97,3950.77,1657,1692,4.231,0,0,0,0,
119,4469.74,4054.87,4266.67,4154.87,4074.36,3591.79,4433.33,4460,4754.36,4482.56,4572.31,4356.92,4263.08,3969.74,1657,1693,4.238,0,0,0,0,
120,4467.18,4040.51,4267.69,4130.26,4061.03,3587.69,4430.77,4456.92,4741.54,4477.44,4566.15,4348.21,4264.1,3961.03,1657,1693,4.246,0,0,0,0,
121,4461.54,4028.21,4264.62,4108.21,4060,3582.05,4425.64,4460,4734.36,4480,4577.44,4347.69,4281.03,3952.82,1656,1694,4.254,0,0,0,0,
122,4469.23,4030.77,4263.59,4128.72,4073.33,3586.15,4430.77,4462.05,4753.33,4489.23,4585.13,4358.46,4280,3962.56,1657,1693,4.263,0,0,0,0,
123,4469.23,4048.72,4263.08,4148.21,4074.87,3595.9,4439.49,4464.62,4768.21,4497.44,4583.59,4356.41,4278.46,3955.38,1655,1693,4.269,0,0,0,0,
124,4462.56,4053.85,4266.67,4135.9,4064.1,3597.95,4441.54,4472.31,4762.05,4501.03,4584.1,4351.28,4283.59,3950.77,1656,1693,4.277,0,0,0,0,
125,4470.77,4040,4275.38,4132.31,4065.13,3590.26,4440,4469.23,4754.36,4493.85,4578.97,4366.15,4273.85,3983.59,1654,1691,4.286,0,0,0,0,
126,4480,4038.97,4278.46,4139.49,4073.85,3593.85,4443.08,4464.62,4755.9,4491.79,4576.92,4372.31,4260.51,4002.05,1654,1692,4.293,0,0,0,0,
127,4476.41,4045.13,4280,4126.15,4077.44,3607.18,4443.08,4468.72,4757.95,4501.03,4591.79,4360.51,4269.74,3969.74,1654,1692,4.301,0,0,0,0,
128,4478.97,4051.28,4283.59,4124.1,4077.44,3603.08,4435.38,4466.15,4755.38,4498.46,4587.69,4367.18,4285.64,3951.79,1654,1693,4.308,0,0,0,0,
0,4484.1,4069.74,4282.05,4145.13,4073.33,3589.23,4428.21,4456.41,4746.15,4487.18,4569.74,4375.38,4283.08,3972.31,1656,1694,4.316,0,0,0,0,
1,4488.72,4078.97,4284.62,4152.82,4072.31,3586.15,4427.69,4455.38,4740,4485.13,4584.62,4362.56,4275.9,3972.31,1656,1695,4.325,0,0,0,0,
2,4488.21,4068.72,4289.74,4139.49,4075.9,3593.85,4429.23,4458.97,4746.15,4479.49,4608.21,4353.33,4288.21,3953.85,1658,1695,4.332,0,0,0,0,
3,4480,4069.74,4284.62,4135.9,4075.38,3600.51,4430.26,4458.46,4751.28,4480,4600.51,4359.49,4300,3968.21,1659,1696,4.34,0,0,0,0,
4,4474.36,4058.97,4275.9,4126.67,4066.67,3594.36,4432.82,4458.97,4742.56,4490.26,4583.59,4361.54,4284.62,3985.64,1660,1694,4.348,0,0,0,0,
5,4474.87,4033.85,4277.44,4106.67,4067.18,3590.77,4437.95,4463.08,4746.15,4491.79,4582.05,4354.87,4276.92,3968.21,1659,1693,4.355,0,0,0,0,
6,4483.08,4049.74,4286.15,4114.36,4075.9,3602.56,4443.08,4475.38,4768.21,4500,4585.13,4362.05,4284.62,3960.51,1659,1692,4.363,0,0,0,0,
7,4476.92,4057.44,4280,4127.18,4071.28,3609.74,4445.13,4481.54,4771.79,4502.56,4583.59,4368.21,4271.28,3964.62,1657,1691,4.371,0,0,0,0,
8,4456.92,4043.08,4260,4125.13,4067.69,3608.21,4443.08,4470.26,4750.26,4491.79,4585.64,4353.33,4265.13,3964.62,1656,1692,4.379,0,0,0,0,
9,4465.13,4047.69,4266.15,4118.46,4068.72,3604.62,4440,4462.56,4741.54,4489.23,4588.72,4351.79,4277.44,3969.74,1657,1691,4.387,0,0,0,0,
10,4477.95,4043.08,4286.67,4104.1,4056.92,3593.85,4432.82,4462.05,4743.08,4480.51,4584.1,4365.64,4271.79,3958.46,1655,1692,4.395,0,0,0,0,
11,4458.46,4031.28,4273.33,4101.03,4047.69,3592.82,4430.26,4458.46,4740.51,4462.56,4578.97,4358.46,4260.51,3948.21,1655,1693,4.403,0,0,0,0,
12,4455.9,4054.36,4261.54,4122.05,4051.79,3603.08,4437.44,4461.03,4743.59,4469.74,4581.54,4343.59,4275.38,3963.59,1655,1692,4.41,0,0,0,0,
13,4490.26,4074.87,4289.23,4140,4055.38,3603.59,4445.13,4474.87,4753.33,4495.9,4588.72,4366.67,4289.23,3975.9,1654,1692,4.418,0,0,0,0,
14,4503.08,4045.13,4305.13,4135.38,4051.28,3600.51,4440.51,4476.41,4747.69,4491.28,4589.74,4385.64,4268.72,3981.03,1654,1692,4.426,0,0,0,0,
15,4483.59,4027.18,4290.77,4122.56,4044.62,3601.54,4428.72,4460,4737.95,4471.28,4574.87,4366.67,4240,3984.62,1654,1692,4.434,0,0,0,0,
16,4473.33,4055.38,4284.1,4116.92,4054.87,3601.03,4425.64,4457.44,4745.64,4478.97,4573.85,4356.41,4249.23,3975.9,1653,1691,4.441,0,0,0,0,
17,4471.79,4078.46,4283.08,4126.67,4073.85,3602.56,4430.77,4465.64,4753.33,4495.9,4597.95,4355.38,4283.59,3952.82,1654,1692,4.449,0,0,0,0,
18,4464.62,4072.82,4274.87,4128.72,4070.77,3610.77,4432.82,4463.59,4750.77,4494.87,4601.54,4344.62,4294.87,3937.44,1654,1690,4.457,0,0,0,0,
19,4471.79,4049.23,4278.97,4109.23,4054.36,3605.13,4428.21,4460.51,4749.74,4489.23,4580.51,4348.21,4279.49,3952.82,1653,1691,4.465,0,0,0,0,
20,4487.69,4028.21,4284.1,4101.03,4050.77,3594.36,4424.62,4460.51,4750.26,4491.79,4580.51,4362.56,4274.87,3979.49,1655,1690,4.473,0,0,0,0,
21,4481.54,4033.85,4277.95,4112.31,4047.18,3595.9,4428.21,4461.54,4749.23,4491.79,4596.41,4358.97,4286.67,3977.44,1654,1692,4.48,0,0,0,0,
22,4469.23,4062.05,4280.51,4120,4039.49,3596.92,4429.23,4461.54,4746.67,4493.85,4601.54,4356.41,4287.18,3975.9,1656,1693,4.488,0,0,0,0,
23,4474.36,4067.18,4288.21,4109.74,4042.05,3589.23,4425.13,4460,4740,4491.28,4600.51,4366.67,4274.87,3995.38,1655,1693,4.496,0,0,0,0,
24,4476.41,4033.85,4282.56,4098.97,4042.05,3584.62,4425.13,4456.41,4732.31,4474.36,4592.31,4360.51,4274.36,3973.33,1656,1692,4.505,0,0,0,0,
25,4474.87,4018.97,4277.95,4111.28,4034.36,3589.23,4428.72,4456.41,4732.82,4471.79,4585.64,4355.9,4280.51,3950.77,1656,1690,4.512,0,0,0,0,
26,4477.44,4040.51,4281.03,4117.95,4033.33,3592.31,4429.74,4458.97,4741.54,4485.64,4586.15,4357.44,4270.77,3963.08,1657,1690,4.521,0,0,0,0,
27,4470.26,4056.41,4277.44,4109.23,4042.56,3591.28,4429.74,4458.97,4741.54,4485.64,4582.05,4344.62,4258.46,3954.36,1656,1690,4.527,0,0,0,0,
28,4470.26,4057.95,4274.36,4110.26,4046.15,3593.85,4427.69,4452.82,4730.26,4468.72,4579.49,4339.49,4263.59,3964.1,1656,1691,4.536,0,0,0,0,
29,4478.97,4057.95,4281.54,4107.69,4044.1,3602.56,4427.69,4455.9,4739.49,4475.9,4582.56,4350.77,4270.26,3992.31,1656,1691,4.544,0,0,0,0,
30,4476.41,4058.97,4284.1,4102.56,4051.79,3606.15,4430.77,4469.23,4759.49,4506.15,4589.74,4353.33,4277.44,3964.62,1655,1693,4.551,0,0,0,0,
31,4472.31,4051.28,4279.49,4116.92,4058.97,3598.97,4429.74,4467.18,4747.18,4501.03,4595.38,4351.79,4282.56,3945.13,1656,1693,4.56,0,0,0,0,
32,4476.92,4054.87,4278.46,4125.13,4057.95,3595.38,4425.13,4453.33,4727.18,4470.77,4597.95,4361.54,4274.87,3980.51,1654,1694,4.566,0,0,0,0,
33,4480,4058.97,4284.62,4110.26,4054.87,3595.38,4425.13,4454.87,4733.85,4477.44,4598.46,4365.64,4275.38,3989.23,1655,1694,4.575,0,0,0,0,
34,4474.87,4037.44,4281.54,4100.51,4046.15,3593.33,4426.15,4460,4738.46,4494.36,4593.33,4354.87,4280,3966.67,1653,1694,4.582,0,0,0,0,
35,4456.92,4030.26,4264.1,4103.59,4042.56,3600,4427.18,4451.28,4732.31,4482.05,4587.18,4340,4273.33,3949.23,1654,1695,4.591,0,0,0,0,
36,4438.97,4037.44,4255.9,4094.36,4043.08,3603.59,4426.15,4444.62,4729.74,4469.74,4581.03,4328.21,4258.97,3931.79,1653,1693,4.598,0,0,0,0,
37,4446.15,4028.21,4263.08,4078.97,4041.03,3593.85,4426.15,4450.26,4731.28,4473.85,4572.82,4333.33,4248.21,3954.36,1654,1691,4.606,0,0,0,0,
38,4454.87,4015.9,4265.64,4081.54,4036.92,3588.21,4434.36,4457.95,4743.08,4473.85,4568.72,4346.15,4251.28,3981.54,1654,1689,4.613,0,0,0,0,
39,4461.54,4024.1,4270.26,4098.46,4036.41,3593.85,4437.95,4462.05,4750.77,4473.85,4580,4350.77,4263.59,3966.15,1654,1689,4.621,0,0,0,0,
40,4470.26,4036.92,4282.56,4104.62,4042.05,3593.33,4429.23,4461.54,4738.46,4480,4594.36,4351.28,4273.85,3956.41,1654,1688,4.63,0,0,0,0,
41,4463.59,4031.28,4284.1,4100,4041.03,3588.72,4425.13,4458.97,4729.74,4474.36,4589.23,4349.23,4265.13,3955.38,1655,1691,4.637,0,0,0,0,
42,4464.62,4037.44,4280,4109.23,4037.44,3595.9,4433.33,4457.95,4734.87,4462.56,4578.46,4346.15,4252.82,3943.08,1654,1693,4.646,0,0,0,0,
43,4480.51,4049.74,4291.28,4107.69,4042.05,3602.56,4436.92,4461.03,4734.36,4468.21,4583.08,4350.26,4258.46,3953.33,1655,1695,4.653,0,0,0,0,
44,4468.21,4035.38,4290.77,4090.77,4041.54,3595.38,4431.79,4457.95,4731.79,4477.95,4586.15,4349.23,4258.46,3964.62,1655,1695,4.66,0,0,0,0,
45,4447.69,4019.49,4268.72,4091.79,4033.33,3588.72,4428.72,4448.21,4733.85,4468.21,4574.87,4333.33,4247.18,3944.1,1655,1696,4.668,0,0,0,0,
46,4454.36,4024.1,4262.05,4096.92,4036.92,3590.26,4428.21,4442.05,4728.21,4455.9,4568.72,4322.56,4245.13,3937.44,1654,1696,4.676,0,0,0,0,
47,4450.77,4030.26,4261.54,4090.26,4046.15,3591.79,4426.67,4437.95,4717.95,4457.95,4562.56,4322.56,4243.59,3938.46,1655,1697,4.685,0,0,0,0,
48,4433.85,4032.31,4252.82,4090.77,4042.56,3591.28,4425.64,4433.85,4715.9,4455.9,4551.79,4316.41,4229.74,3917.44,1653,1695,4.692,0,0,0,0,
49,4445.64,4040.51,4255.9,4101.54,4043.59,3591.28,4427.69,4436.92,4723.08,4449.23,4561.03,4313.85,4233.33,3918.46,1652,1694,4.7,0,0,0,0,
50,4456.92,4051.28,4266.15,4108.72,4052.82,3596.41,4430.26,4443.59,4731.79,4455.38,4572.82,4327.69,4249.23,3945.64,1653,1692,4.707,0,0,0,0,
51,4454.87,4047.69,4267.69,4102.56,4052.31,3602.05,4432.31,4447.69,4740,4471.28,4570.26,4343.08,4247.69,3955.38,1651,1693,4.715,0,0,0,0,
52,4467.69,4042.56,4276.41,4094.87,4047.18,3597.44,4431.79,4448.72,4744.62,4480.51,4578.46,4344.1,4251.79,3957.44,1653,1692,4.723,0,0,0,0,
53,4482.56,4048.72,4286.15,4109.23,4051.28,3592.82,4427.18,4445.64,4734.36,4476.41,4590.26,4349.74,4251.79,3987.18,1652,1692,4.731,0,0,0,0,
54,4477.44,4045.64,4282.05,4122.56,4058.97,3597.95,4428.21,4442.56,4722.56,4470.26,4582.05,4363.59,4244.1,4004.1,1653,1694,4.74,0,0,0,0,
55,4472.31,4037.44,4280,4111.28,4061.54,3604.1,4435.38,4450.26,4733.33,4473.85,4581.54,4355.9,4272.31,3960,1653,1694,4.746,0,0,0,0,
56,4475.38,4054.36,4276.92,4108.72,4061.03,3605.64,4436.41,4454.36,4742.05,4472.31,4595.9,4338.97,4288.72,3931.79,1655,1694,4.754,0,0,0,0,
57,4473.33,4064.1,4277.44,4100,4053.33,3600,4430.26,4444.1,4725.13,4453.85,4586.67,4349.23,4242.05,3977.95,1655,1694,4.762,0,0,0,0,
58,4465.13,4034.36,4283.08,4074.36,4042.05,3587.69,4422.05,4437.95,4715.38,4444.62,4569.74,4356.41,4226.15,3993.85,1657,1694,4.77,0,0,0,0,
59,4457.95,4023.08,4272.82,4088.72,4046.67,3586.67,4416.41,4442.56,4725.64,4463.59,4580.51,4335.9,4274.36,3938.97,1657,1693,4.778,0,0,0,0,
60,4455.9,4051.28,4262.56,4127.69,4060.51,3598.97,4421.03,4444.62,4730.26,4477.44,4592.31,4323.59,4287.69,3923.59,1656,1693,4.786,0,0,0,0,
61,4466.67,4058.46,4274.87,4120.51,4062.05,3595.38,4423.59,4444.62,4730.26,4467.18,4583.08,4337.44,4253.85,3964.1,1657,1693,4.793,0,0,0,0,
62,4483.59,4057.44,4290.77,4115.38,4059.49,3586.15,4423.59,4455.9,4746.15,4467.18,4583.59,4357.95,4254.36,3983.59,1655,1693,4.801,0,0,0,0,
63,4495.38,4056.41,4296.92,4132.82,4056.41,3589.74,4424.62,4461.03,4748.72,4483.08,4589.23,4362.05,4268.72,3978.46,1656,1694,4.809,0,0,0,0,
64,4495.38,4032.31,4298.97,4108.21,4045.13,3592.31,4422.05,4447.69,4726.15,4480.51,4579.49,4358.97,4253.85,3984.1,1655,1694,4.817,0,0,0,0,
65,4480.51,4026.67,4287.69,4081.03,4040.51,3586.15,4414.87,4438.46,4714.36,4463.59,4570.77,4360.51,4247.69,3980,1655,1694,4.826,0,0,0,0,
66,4470.77,4060,4274.87,4111.28,4054.36,3587.69,4412.31,4441.54,4718.46,4458.97,4570.26,4354.36,4263.59,3963.08,1655,1693,4.832,0,0,0,0,
67,4482.56,4069.74,4280.51,4135.38,4062.56,3594.87,4418.97,4443.59,4722.56,4457.95,4584.1,4347.18,4272.31,3988.21,1654,1694,4.84,0,0,0,0,
68,4495.38,4026.15,4289.23,4097.44,4052.82,3593.85,4424.1,4442.56,4726.15,4456.41,4590.77,4350.26,4255.38,4011.28,1654,1691,4.848,0,0,0,0,
69,4488.21,4021.54,4288.21,4090.26,4051.28,3590.77,4422.05,4443.59,4729.74,4473.33,4571.28,4353.33,4248.72,3975.9,1654,1692,4.856,0,0,0,0,
70,4475.38,4059.49,4278.97,4128.72,4056.92,3589.23,4418.46,4442.56,4725.64,4477.95,4563.59,4337.44,4267.69,3940.51,1654,1690,4.864,0,0,0,0,
71,4472.31,4048.72,4273.33,4118.97,4051.79,3590.77,4415.38,4439.49,4722.05,4457.95,4581.03,4322.05,4273.33,3955.38,1653,1692,4.871,0,0,0,0,
72,4472.31,4026.67,4276.92,4106.15,4053.85,3591.28,4418.97,4442.05,4728.72,4459.49,4591.28,4327.69,4269.23,3978.46,1655,1691,4.879,0,0,0,0,
73,4475.38,4049.74,4281.03,4137.95,4066.15,3589.23,4426.67,4449.23,4737.44,4478.97,4587.18,4340.51,4274.87,3980,1654,1692,4.887,0,0,0,0,
74,4475.9,4071.79,4281.54,4134.36,4058.46,3587.69,4427.18,4447.69,4730.77,4468.72,4575.9,4344.1,4271.79,3977.95,1657,1693,4.895,0,0,0,0,
75,4463.59,4057.95,4279.49,4101.54,4046.67,3587.18,4417.44,4437.44,4707.69,4449.74,4559.49,4334.87,4249.74,3965.13,1656,1692,4.903,0,0,0,0,
76,4460.51,4054.36,4274.87,4121.54,4057.44,3589.74,4420.51,4437.95,4705.64,4463.59,4569.74,4335.9,4252.82,3943.59,1657,1695,4.911,0,0,0,0,
77,4473.85,4050.77,4272.82,4135.38,4049.74,3590.26,4427.18,4446.15,4723.59,4478.97,4589.74,4341.54,4274.87,3940.51,1657,1694,4.918,0,0,0,0,
78,4478.46,4017.95,4279.49,4101.03,4031.28,3589.74,4416.92,4443.59,4721.03,4467.69,4571.79,4346.67,4257.44,3985.13,1656,1695,4.926,0,0,0,0,
79,4465.13,4009.74,4281.54,4101.54,4043.08,3591.28,4410.26,4440,4714.87,4448.72,4552.31,4344.62,4242.05,4000,1656,1695,4.934,0,0,0,0,
80,4448.72,4034.87,4269.74,4120,4050.26,3591.28,4417.44,4442.05,4728.21,4444.1,4567.69,4328.21,4261.54,3942.56,1654,1695,4.942,0,0,0,0,
81,4446.67,4042.56,4268.21,4107.18,4039.49,3594.87,4424.1,4450.26,4741.54,4455.9,4586.15,4331.28,4268.21,3931.28,1654,1694,4.95,0,0,0,0,
82,4457.44,4029.23,4276.92,4111.79,4047.69,3604.62,4433.33,4467.69,4750.77,4472.31,4584.62,4348.72,4266.15,3969.74,1653,1694,4.957,0,0,0,0,
83,4464.1,4029.23,4280,4137.95,4062.56,3611.28,4445.64,4480.51,4765.13,4483.59,4583.59,4350.26,4281.03,3967.18,1654,1694,4.965,0,0,0,0,
84,4464.62,4040.51,4281.54,4136.41,4052.82,3605.64,4443.08,4472.82,4762.05,4484.1,4586.67,4350.26,4275.9,3950.77,1652,1694,4.973,0,0,0,0,
85,4472.82,4036.41,4284.1,4123.59,4045.64,3596.41,4427.69,4456.41,4741.03,4477.44,4578.97,4354.87,4256.92,3966.67,1653,1696,4.982,0,0,0,0,
86,4475.9,4025.64,4285.13,4124.62,4052.82,3591.79,4423.08,4447.18,4731.79,4469.74,4573.85,4343.59,4267.18,3985.13,1653,1695,4.989,0,0,0,0,
87,4462.05,4031.28,4284.62,4124.1,4051.79,3592.31,4426.15,4444.62,4734.36,4461.03,4570.26,4333.85,4262.05,3989.74,1654,1696,4.997,0,0,0,0,
88,4460,4042.05,4284.1,4124.1,4049.23,3591.28,4420.51,4441.03,4732.31,4454.87,4562.56,4346.15,4238.46,3975.38,1654,1695,5.004,0,0,0,0,
89,4472.31,4044.62,4287.18,4124.1,4056.41,3588.72,4416.92,4440.51,4729.23,4466.15,4571.79,4344.1,4258.46,3947.69,1653,1695,5.012,0,0,0,0,
90,4473.85,4040.51,4298.46,4112.31,4059.49,3592.31,4425.13,4449.74,4732.31,4478.46,4580,4333.33,4268.72,3951.79,1655,1693,5.021,0,0,0,0,
91,4456.41,4035.9,4293.85,4112.82,4047.69,3594.36,4429.23,4457.44,4735.38,4465.13,4563.59,4342.05,4230.26,3971.28,1655,1692,5.028,0,0,0,0,
92,4456.41,4028.21,4286.15,4126.15,4041.03,3593.33,4430.77,4461.54,4738.97,4464.1,4566.15,4355.38,4239.49,3968.72,1656,1692,5.036,0,0,0,0,
93,4477.95,4002.05,4298.97,4125.64,4039.49,3590.77,4430.26,4455.9,4732.82,4470.77,4580,4353.85,4267.69,3977.44,1655,1693,5.044,0,0,0,0,
94,4467.18,3999.49,4291.79,4117.95,4040,3590.77,4422.56,4441.03,4714.87,4449.23,4557.95,4341.03,4236.41,3983.08,1656,1694,5.051,0,0,0,0,
95,4449.74,4040,4276.41,4121.54,4059.49,3599.49,4427.69,4445.64,4721.03,4443.59,4550.26,4340.51,4235.9,3968.72,1656,1694,5.06,0,0,0,0,
96,4467.18,4059.49,4289.23,4126.15,4064.1,3607.69,4439.49,4460.51,4740,4468.21,4578.97,4357.95,4274.36,3976.92,1655,1695,5.067,0,0,0,0,
97,4482.56,4032.82,4294.87,4112.82,4038.46,3605.64,4432.82,4451.79,4732.82,4465.13,4579.49,4363.59,4255.9,3991.79,1653,1696,5.075,0,0,0,0,
98,4476.92,4009.23,4280.51,4106.15,4040,3597.95,4424.1,4439.49,4716.41,4455.38,4556.92,4344.1,4234.36,3959.49,1653,1695,5.083,0,0,0,0,
99,4469.74,4004.62,4276.41,4117.95,4058.97,3591.79,4424.1,4445.13,4716.92,4464.62,4554.36,4327.18,4256.41,3940.51,1651,1694,5.09,0,0,0,0,
100,4461.03,4013.33,4280,4118.97,4049.23,3590.77,4422.05,4447.18,4722.56,4449.74,4554.36,4333.33,4238.46,3991.79,1652,1691,5.098,0,0,0,0,
101,4458.97,4052.82,4278.46,4123.59,4045.13,3592.82,4424.1,4444.62,4728.21,4443.59,4558.46,4337.44,4226.67,4000.51,1651,1689,5.107,0,0,0,0,
102,4464.62,4049.74,4277.95,4134.87,4055.38,3590.26,4426.15,4446.67,4729.74,4466.67,4567.18,4327.18,4258.46,3941.54,1653,1689,5.115,0,0,0,0,
103,4462.05,3995.38,4275.38,4119.49,4045.13,3588.21,4414.36,4443.08,4720.51,4460.51,4551.28,4323.08,4247.69,3924.62,1652,1690,5.122,0,0,0,0,
104,4472.31,4005.13,4276.92,4114.87,4042.56,3590.26,4408.72,4440.51,4716.41,4447.69,4542.56,4335.9,4228.21,3968.72,1655,1692,5.13,0,0,0,0,
105,4485.13,4053.85,4286.15,4129.74,4054.36,3592.31,4421.03,4443.59,4713.33,4457.44,4552.31,4347.69,4251.79,3987.69,1654,1692,5.137,0,0,0,0,
106,4468.21,4046.67,4286.67,4115.9,4047.69,3592.82,4424.62,4441.54,4708.21,4451.28,4560.51,4336.41,4265.13,3963.59,1656,1694,5.146,0,0,0,0,
107,4450.26,4021.03,4275.9,4102.05,4038.97,3590.77,4416.41,4435.38,4708.21,4430.26,4557.95,4322.05,4244.62,3949.74,1657,1692,5.153,0,0,0,0,
108,4454.87,4020.51,4265.13,4124.62,4050.77,3593.33,4417.95,4438.97,4713.33,4447.69,4557.95,4324.1,4242.56,3951.79,1656,1692,5.161,0,0,0,0,
109,4462.05,4015.9,4264.62,4130.26,4051.79,3603.08,4427.69,4445.64,4721.03,4473.85,4569.23,4327.69,4265.64,3955.9,1657,1690,5.17,0,0,0,0,
110,4454.36,4020,4265.64,4118.97,4034.36,3606.67,4427.18,4442.05,4728.21,4465.64,4568.72,4321.03,4273.33,3947.69,1656,1689,5.176,0,0,0,0,
111,4446.67,4044.62,4262.56,4122.56,4033.85,3602.56,4426.15,4449.74,4744.62,4464.62,4560.51,4322.05,4262.56,3938.46,1656,1688,5.185,0,0,0,0,
112,4455.38,4031.28,4268.72,4119.49,4045.64,3604.62,4430.26,4463.08,4748.72,4481.54,4566.67,4334.87,4260.51,3945.13,1654,1688,5.192,0,0,0,0,
113,4465.64,4014.36,4277.44,4114.87,4045.64,3605.13,4423.59,4452.31,4730.26,4474.36,4574.36,4337.95,4266.15,3972.31,1655,1688,5.201,0,0,0,0,
114,4461.03,4037.95,4279.49,4117.44,4041.54,3593.33,4416.92,4443.08,4720.51,4455.38,4562.56,4333.33,4258.97,3988.21,1653,1689,5.208,0,0,0,0,
115,4458.46,4042.56,4278.97,4124.1,4047.69,3589.23,4421.03,4456.92,4732.82,4462.05,4561.03,4333.33,4258.97,3964.62,1654,1691,5.216,0,0,0,0,
116,4462.05,4026.15,4274.87,4135.38,4047.18,3597.95,4422.56,4458.97,4736.92,4476.92,4573.33,4337.44,4270.26,3947.69,1654,1692,5.223,0,0,0,0,
117,4464.1,4031.28,4274.36,4134.87,4036.41,3601.03,4417.95,4442.56,4721.54,4472.82,4567.69,4338.46,4260.51,3955.38,1654,1694,5.231,0,0,0,0,
118,4474.36,4041.03,4284.62,4125.64,4039.49,3600,4420,4443.08,4716.41,4461.54,4563.59,4344.1,4255.9,3979.49,1655,1693,5.24,0,0,0,0,
119,4477.44,4034.36,4289.23,4121.54,4044.62,3602.05,4421.54,4451.28,4720.51,4456.41,4570.26,4351.79,4271.28,4003.08,1655,1695,5.247,0,0,0,0,
120,4466.15,4031.79,4281.03,4114.36,4034.36,3595.38,4416.41,4448.72,4716.41,4466.15,4573.33,4349.23,4274.87,3994.36,1657,1695,5.256,0,0,0,0,
121,4466.67,4034.87,4278.97,4115.9,4033.33,3592.31,4417.95,4451.28,4716.41,4484.1,4581.03,4342.05,4280.51,3959.49,1657,1695,5.262,0,0,0,0,
122,4477.44,4041.54,4288.72,4136.41,4051.79,3602.05,4427.69,4461.54,4733.33,4490.77,4586.67,4346.67,4300,3951.28,1657,1695,5.27,0,0,0,0,
123,4476.41,4047.18,4298.46,4133.85,4057.44,3606.67,4427.69,4463.08,4743.59,4481.54,4576.41,4353.85,4295.9,3967.18,1657,1692,5.278,0,0,0,0,
124,4471.79,4030.26,4294.36,4116.41,4048.72,3603.08,4415.9,4454.87,4732.82,4471.79,4569.23,4344.1,4272.31,3959.49,1657,1689,5.286,0,0,0,0,
125,4474.36,4021.03,4281.54,4126.15,4044.62,3603.59,4412.82,4454.87,4734.87,4475.9,4566.67,4335.9,4264.1,3950.77,1656,1688,5.295,0,0,0,0,
126,4473.85,4038.97,4280.51,4137.95,4044.1,3604.1,4418.46,4456.92,4741.54,4478.97,4563.59,4338.97,4261.54,3956.92,1656,1689,5.302,0,0,0,0,
127,4474.36,4046.67,4291.28,4133.33,4050.26,3602.56,4416.41,4447.18,4725.64,4465.13,4564.1,4341.54,4260.51,3957.44,1654,1689,5.31,0,0,0,0,
128,4480,4044.62,4297.44,4132.82,4059.49,3596.41,4410.77,4438.46,4712.31,4457.44,4562.56,4341.54,4261.54,3958.46,1653,1693,5.317,0,0,0,0,
0,4480.51,4048.72,4294.36,4130.26,4060.51,3587.69,4411.28,4443.59,4716.41,4471.28,4552.82,4340,4254.36,3959.49,1653,1694,5.325,0,0,0,0,
1,4476.41,4047.18,4291.79,4121.54,4061.03,3595.38,4414.36,4447.69,4716.92,4470.77,4544.1,4336.92,4246.15,3960,1652,1695,5.333,0,0,0,0,
2,4474.87,4034.87,4289.74,4123.59,4060.51,3604.62,4414.87,4446.67,4718.46,4449.74,4538.46,4334.87,4242.05,3958.97,1653,1696,5.341,0,0,0,0,
3,4476.41,4029.23,4291.28,4126.67,4054.87,3594.36,4418.46,4452.82,4730.26,4446.15,4540.51,4339.49,4243.59,3954.87,1651,1695,5.348,0,0,0,0,
4,4476.41,4035.38,4293.85,4120,4056.92,3591.28,4423.08,4460,4734.36,4461.54,4559.49,4350.77,4252.31,3964.62,1652,1696,5.356,0,0,0,0,
5,4477.44,4037.95,4296.41,4122.56,4064.62,3604.62,4428.21,4464.1,4738.97,4479.49,4572.82,4360.51,4261.03,3975.9,1652,1695,5.364,0,0,0,0,
6,4477.95,4030.77,4295.38,4131.79,4063.08,3608.72,4432.31,4466.67,4748.72,4490.77,4571.79,4352.82,4265.13,3963.59,1652,1695,5.372,0,0,0,0,
7,4469.74,4025.13,4286.67,4129.23,4059.49,3601.03,4425.13,4460,4744.1,4483.59,4568.21,4340,4259.49,3953.85,1653,1694,5.38,0,0,0,0,
8,4460,4026.15,4277.44,4119.49,4061.03,3600,4413.33,4447.69,4729.74,4473.33,4559.49,4337.44,4244.62,3958.46,1653,1694,5.388,0,0,0,0,
9,4456.41,4025.13,4274.36,4118.97,4064.1,3604.62,4413.33,4442.56,4726.67,4474.36,4551.28,4331.79,4241.03,3951.28,1654,1694,5.395,0,0,0,0,
10,4460.51,4027.69,4277.44,4123.59,4067.18,3602.56,4414.87,4443.59,4730.77,4465.64,4555.9,4325.13,4247.18,3946.15,1654,1695,5.403,0,0,0,0,
11,4468.72,4035.38,4286.67,4122.56,4068.21,3594.36,4405.64,4442.56,4727.69,4452.31,4563.59,4334.36,4238.97,3956.41,1656,1693,5.411,0,0,0,0,
12,4480.51,4036.41,4295.9,4127.69,4069.23,3588.72,4403.08,4442.56,4724.1,4462.56,4557.95,4346.15,4230.77,3964.1,1655,1694,5.419,0,0,0,0,
13,4490.77,4041.03,4298.97,4140.51,4075.38,3591.28,4410.77,4447.18,4731.28,4475.9,4556.41,4353.85,4232.82,3974.36,1656,1695,5.427,0,0,0,0,
14,4490.26,4050.77,4296.92,4137.44,4079.49,3591.28,4405.64,4448.72,4735.9,4465.13,4569.23,4358.46,4231.79,3983.08,1655,1695,5.435,0,0,0,0,
15,4479.49,4046.15,4289.74,4123.08,4068.21,3584.62,4393.85,4442.56,4726.15,4457.95,4570.26,4342.56,4229.23,3967.18,1656,1694,5.442,0,0,0,0,
16,4472.82,4033.33,4280,4119.49,4058.46,3586.15,4395.38,4441.03,4725.64,4471.79,4555.38,4324.62,4221.03,3949.74,1654,1693,5.45,0,0,0,0,
17,4475.38,4032.31,4279.49,4123.08,4067.18,3596.92,4406.67,4447.69,4742.56,4476.92,4551.28,4332.82,4211.28,3953.85,1653,1692,5.459,0,0,0,0,
18,4473.85,4035.9,4279.49,4129.23,4076.92,3606.67,4412.82,4447.18,4738.46,4460.51,4557.44,4340,4213.85,3958.97,1653,1692,5.466,0,0,0,0,
19,4470.26,4036.41,4275.38,4134.87,4076.92,3606.67,4409.23,4440.51,4717.95,4456.92,4562.05,4332.82,4218.46,3956.41,1653,1693,5.475,0,0,0,0,
20,4473.85,4037.44,4278.97,4128.21,4075.38,3595.9,4399.49,4438.46,4716.92,4472.31,4568.21,4331.79,4221.03,3955.9,1653,1694,5.481,0,0,0,0,
21,4473.85,4036.41,4283.08,4118.46,4072.31,3586.67,4394.87,4435.9,4726.15,4480,4570.77,4335.9,4227.18,3959.49,1652,1696,5.49,0,0,0,0,
22,4470.26,4031.79,4278.97,4118.46,4067.69,3587.69,4393.85,4429.74,4718.97,4472.82,4569.23,4335.38,4230.77,3960.51,1653,1697,5.497,0,0,0,0,
23,4470.77,4038.97,4277.44,4123.59,4078.97,3591.28,4393.33,4431.79,4715.38,4468.21,4567.69,4337.95,4229.23,3958.97,1655,1700,5.505,0,0,0,0,
24,4478.46,4049.74,4288.72,4133.33,4092.82,3591.28,4396.41,4442.56,4730.26,4476.41,4572.82,4346.67,4228.72,3965.13,1654,1699,5.513,0,0,0,0,
25,4481.54,4042.56,4295.9,4134.87,4080,3591.28,4397.95,4447.18,4737.95,4480.51,4573.85,4345.64,4222.05,3970.26,1655,1700,5.521,0,0,0,0,
26,4469.23,4032.82,4283.59,4129.74,4062.56,3590.26,4390.77,4441.03,4733.33,4473.85,4560.51,4334.87,4212.82,3956.41,1656,1700,5.528,0,0,0,0,
27,4462.56,4038.46,4278.46,4129.74,4070.77,3588.21,4387.69,4438.46,4729.74,4473.85,4551.28,4330.77,4215.38,3946.67,1656,1701,5.536,0,0,0,0,
28,4474.36,4042.56,4294.36,4128.21,4083.59,3591.79,4394.36,4445.64,4730.26,4476.92,4558.46,4336.41,4217.44,3955.38,1656,1702,5.544,0,0,0,0,
29,4473.33,4033.33,4293.85,4123.08,4073.33,3592.82,4392.82,4440.51,4726.15,4463.59,4550.26,4328.72,4207.69,3951.28,1656,1704,5.552,0,0,0,0,
30,4459.49,4027.69,4276.41,4121.54,4062.56,3585.13,4385.64,4427.69,4719.49,4454.87,4535.9,4316.41,4193.33,3940.51,1656,1702,5.56,0,0,0,0,
31,4467.18,4036.41,4284.1,4121.54,4073.33,3588.72,4390.77,4432.82,4723.08,4469.23,4549.74,4324.62,4201.03,3951.79,1654,1702,5.567,0,0,0,0,
32,4479.49,4041.54,4299.49,4123.59,4078.46,3597.95,4396.92,4445.64,4732.31,4477.95,4560,4337.95,4218.46,3960,1655,1697,5.575,0,0,0,0,
33,4476.92,4041.03,4297.44,4134.87,4074.36,3597.95,4401.03,4452.31,4744.62,4478.97,4551.79,4346.15,4208.21,3963.59,1653,1694,5.583,0,0,0,0,
34,4477.95,4049.23,4295.9,4143.59,4081.03,3598.97,4408.72,4460,4750.26,4490.77,4556.92,4353.33,4200.51,3972.31,1652,1694,5.591,0,0,0,0,
35,4480.51,4055.38,4298.46,4136.92,4087.69,3596.92,4406.15,4457.95,4741.54,4491.28,4567.69,4345.64,4225.64,3965.13,1653,1693,5.599,0,0,0,0,
36,4482.56,4049.74,4297.95,4133.33,4086.15,3587.69,4394.36,4445.13,4728.21,4478.97,4566.15,4340,4240,3958.97,1652,1696,5.607,0,0,0,0,
37,4486.67,4049.74,4298.97,4141.54,4091.28,3587.18,4395.38,4445.64,4729.74,4480.51,4566.67,4352.82,4224.1,3972.31,1653,1698,5.614,0,0,0,0,
38,4481.54,4050.26,4296.92,4137.44,4090.26,3594.36,4401.03,4449.23,4733.33,4485.13,4563.59,4353.85,4215.38,3968.21,1653,1699,5.622,0,0,0,0,
39,4470.77,4036.41,4292.82,4118.97,4075.9,3592.82,4397.44,4442.05,4725.13,4474.87,4553.33,4339.49,4217.44,3952.82,1654,1698,5.631,0,0,0,0,
40,4471.28,4033.33,4292.82,4122.56,4072.82,3588.72,4396.41,4440,4725.13,4469.23,4554.36,4338.97,4217.44,3957.44,1654,1697,5.638,0,0,0,0,
41,4472.82,4038.97,4287.69,4136.41,4078.97,3590.77,4400,4445.64,4736.41,4476.41,4555.9,4340,4218.97,3960.51,1655,1695,5.646,0,0,0,0,
42,4462.56,4030.26,4279.49,4126.15,4071.28,3592.82,4397.95,4448.21,4740,4482.05,4548.72,4332.82,4211.28,3953.33,1654,1694,5.653,0,0,0,0,
43,4458.46,4021.03,4278.46,4114.36,4062.56,3591.79,4394.87,4442.05,4729.23,4475.9,4547.69,4330.26,4203.59,3952.82,1655,1693,5.661,0,0,0,0,
44,4468.21,4027.69,4284.62,4121.54,4069.74,3588.21,4394.87,4435.38,4723.08,4468.21,4552.31,4334.36,4213.33,3956.41,1654,1690,5.67,0,0,0,0,
45,4476.41,4037.44,4293.85,4126.15,4076.92,3590.77,4395.38,4438.46,4730.26,4477.44,4554.36,4339.49,4221.54,3960,1655,1690,5.677,0,0,0,0,
46,4473.85,4039.49,4296.92,4130.26,4071.28,3600.51,4397.95,4445.13,4735.9,4487.18,4553.33,4343.08,4216.41,3960.51,1655,1687,5.686,0,0,0,0,
47,4478.46,4044.62,4294.36,4141.54,4073.85,3601.54,4397.44,4442.56,4731.79,4475.38,4553.85,4341.03,4218.97,3958.46,1655,1689,5.693,0,0,0,0,
48,4490.77,4051.79,4302.56,4138.97,4091.28,3598.46,4394.87,4438.46,4727.18,4469.23,4557.44,4341.54,4233.33,3964.1,1656,1689,5.7,0,0,0,0,
49,4492.82,4054.36,4312.31,4138.46,4096.41,3603.08,4397.95,4442.56,4731.79,4485.64,4562.05,4350.26,4236.92,3974.36,1655,1691,5.708,0,0,0,0,
50,4490.77,4051.28,4301.54,4153.33,4085.13,3604.62,4397.44,4445.13,4735.9,4496.92,4558.46,4353.33,4229.74,3976.92,1655,1692,5.716,0,0,0,0,
51,4487.18,4051.28,4292.82,4150.77,4082.05,3602.56,4394.87,4443.08,4734.36,4489.23,4552.82,4352.82,4228.21,3972.31,1655,1694,5.724,0,0,0,0,
52,4477.95,4052.31,4297.95,4138.46,4093.33,3605.64,4403.59,4443.59,4733.33,4486.15,4555.38,4352.31,4234.36,3964.62,1655,1694,5.732,0,0,0,0,
53,4474.36,4045.64,4297.95,4142.05,4096.92,3607.18,4407.69,4446.15,4742.05,4489.74,4555.9,4345.64,4228.21,3956.92,1654,1694,5.74,0,0,0,0,
54,4477.44,4036.41,4292.31,4138.97,4087.18,3604.1,4399.49,4446.67,4750.26,4489.23,4551.79,4339.49,4214.36,3956.41,1655,1694,5.747,0,0,0,0,
55,4471.79,4028.21,4293.85,4120,4079.49,3601.03,4393.85,4445.13,4748.72,4488.72,4549.74,4341.54,4218.46,3960,1654,1691,5.756,0,0,0,0,
56,4465.13,4029.74,4296.41,4121.03,4083.08,3602.05,4395.9,4445.13,4745.64,4489.74,4555.38,4346.67,4232.82,3958.46,1654,1693,5.763,0,0,0,0,
57,4471.28,4042.05,4296.41,4138.46,4086.67,3603.08,4399.49,4449.74,4752.31,4490.77,4561.54,4348.72,4237.44,3960,1655,1691,5.771,0,0,0,0,
58,4474.36,4044.1,4297.44,4143.59,4074.36,3595.38,4397.44,4446.67,4748.21,4488.21,4555.9,4350.26,4231.28,3962.05,1654,1691,5.78,0,0,0,0,
59,4471.79,4034.87,4295.9,4133.85,4067.18,3586.15,4388.72,4433.85,4725.13,4481.54,4550.26,4352.82,4226.67,3961.03,1655,1690,5.786,0,0,0,0,
60,4472.82,4032.82,4299.49,4125.64,4080,3591.28,4388.21,4426.15,4713.85,4474.87,4551.79,4346.15,4229.74,3958.46,1654,1692,5.795,0,0,0,0,
61,4474.36,4040.51,4304.1,4134.87,4085.13,3594.87,4395.9,4426.67,4717.95,4470.26,4545.64,4332.82,4228.21,3955.9,1655,1691,5.802,0,0,0,0,
62,4471.79,4042.56,4298.97,4144.62,4074.36,3588.21,4394.36,4427.69,4721.54,4473.85,4536.41,4331.79,4218.46,3956.41,1654,1691,5.811,0,0,0,0,
63,4474.36,4038.97,4296.41,4138.97,4075.9,3592.31,4392.82,4428.21,4728.72,4483.08,4545.13,4342.05,4221.54,3958.97,1655,1693,5.818,0,0,0,0,
64,4477.95,4037.44,4298.97,4133.33,4088.72,3601.54,4396.41,4429.23,4737.44,4481.03,4555.38,4343.08,4232.82,3959.49,1654,1695,5.825,0,0,0,0,
65,4475.9,4043.08,4298.97,4138.46,4088.72,3595.9,4391.79,4427.18,4727.18,4472.31,4554.36,4345.13,4231.28,3963.59,1654,1695,5.833,0,0,0,0,
66,4475.9,4047.69,4301.54,4142.56,4089.23,3590.26,4386.15,4425.64,4719.49,4472.82,4552.82,4353.33,4228.72,3965.64,1654,1695,5.841,0,0,0,0,
67,4478.46,4041.03,4306.15,4138.46,4092.31,3592.31,4392.82,4431.28,4733.33,4479.49,4546.15,4350.77,4230.77,3960.51,1653,1694,5.85,0,0,0,0,
68,4472.82,4033.85,4299.49,4135.38,4085.64,3590.77,4397.44,4431.79,4740,4479.49,4535.9,4340.51,4223.59,3957.95,1654,1691,5.857,0,0,0,0,
69,4465.13,4029.74,4292.82,4134.36,4077.44,3592.31,4394.36,4425.13,4730.26,4476.41,4533.85,4337.44,4213.85,3956.41,1652,1691,5.865,0,0,0,0,
70,4469.74,4032.31,4301.03,4136.41,4083.59,3600.51,4398.97,4431.79,4734.87,4482.05,4536.41,4343.08,4218.46,3953.85,1654,1690,5.873,0,0,0,0,
71,4480.51,4036.41,4307.69,4138.97,4095.9,3606.67,4404.62,4440.51,4743.59,4486.67,4538.97,4349.23,4229.23,3958.46,1652,1691,5.88,0,0,0,0,
72,4471.28,4027.69,4298.97,4137.44,4088.21,3604.1,4394.87,4430.26,4725.13,4475.38,4538.46,4342.05,4224.1,3960,1653,1692,5.888,0,0,0,0,
73,4457.95,4021.03,4291.28,4132.82,4073.33,3595.38,4386.67,4421.54,4714.87,4470.77,4535.38,4332.31,4218.46,3951.79,1653,1693,5.896,0,0,0,0,
74,4469.23,4031.79,4295.38,4139.49,4082.05,3590.77,4394.36,4432.31,4732.31,4485.13,4537.44,4341.03,4228.21,3954.87,1654,1695,5.905,0,0,0,0,
75,4480.51,4043.08,4301.54,4150.77,4097.95,3590.77,4400,4438.97,4739.49,4490.77,4542.56,4353.33,4234.36,3969.23,1654,1694,5.912,0,0,0,0,
76,4473.85,4043.59,4300.51,4149.74,4093.33,3593.33,4396.41,4436.41,4738.97,4498.97,4550.77,4351.79,4238.46,3973.33,1655,1695,5.92,0,0,0,0,
77,4476.92,4042.56,4305.64,4148.21,4088.72,3602.05,4397.95,4440,4748.21,4508.72,4558.97,4349.74,4250.77,3969.74,1656,1693,5.927,0,0,0,0,
78,4488.21,4044.1,4311.28,4155.9,4097.44,3604.62,4400.51,4438.46,4745.13,4482.56,4551.28,4349.23,4248.21,3966.15,1656,1691,5.936,0,0,0,0,
79,4481.03,4037.95,4303.59,4153.85,4095.9,3594.36,4395.9,4427.69,4723.08,4455.38,4536.92,4341.03,4225.64,3959.49,1656,1691,5.943,0,0,0,0,
80,4467.18,4027.69,4292.31,4143.59,4088.21,3594.87,4394.87,4426.15,4720.51,4466.15,4533.33,4337.44,4216.92,3953.85,1656,1691,5.952,0,0,0,0,
81,4468.72,4028.72,4294.87,4141.03,4089.74,3607.18,4402.05,4439.49,4743.08,4485.64,4539.49,4342.56,4227.18,3956.41,1655,1692,5.958,0,0,0,0,
82,4476.92,4040,4305.64,4143.08,4094.87,3605.13,4404.62,4446.15,4749.74,4491.79,4543.59,4343.59,4238.46,3961.03,1656,1693,5.966,0,0,0,0,
83,4475.9,4038.46,4306.15,4142.05,4091.79,3601.03,4400,4438.97,4730.26,4486.15,4540,4342.05,4236.92,3957.95,1654,1693,5.974,0,0,0,0,
84,4463.59,4022.56,4298.97,4133.85,4082.56,3601.54,4395.9,4430.26,4719.49,4473.85,4535.38,4340.51,4225.64,3947.69,1655,1693,5.982,0,0,0,0,
85,4457.44,4023.08,4293.33,4135.9,4084.1,3594.87,4394.87,4429.23,4729.23,4473.85,4538.46,4337.44,4228.72,3942.05,1654,1692,5.99,0,0,0,0,
86,4458.97,4030.77,4293.85,4147.69,4091.79,3588.21,4395.9,4434.36,4736.92,4483.08,4539.49,4336.41,4232.82,3945.13,1653,1693,5.998,0,0,0,0,
87,4458.46,4025.64,4293.85,4143.59,4085.13,3590.77,4396.92,4436.41,4732.31,4475.9,4527.18,4335.38,4222.05,3943.59,1654,1692,6.005,0,0,0,0,
88,4457.95,4022.05,4293.33,4134.36,4080.51,3590.77,4396.41,4435.9,4729.74,4470.26,4523.59,4334.87,4221.03,3940,1652,1694,6.013,0,0,0,0,
89,4458.97,4029.23,4296.92,4143.59,4090.77,3589.74,4401.03,4443.59,4741.54,4482.56,4535.38,4339.49,4233.85,3944.62,1654,1693,6.021,0,0,0,0,
90,4458.97,4030.77,4302.56,4149.23,4089.74,3591.28,4403.59,4448.21,4745.64,4488.72,4540.51,4343.59,4233.33,3946.67,1652,1692,6.029,0,0,0,0,
91,4461.03,4021.54,4303.59,4137.44,4077.44,3586.67,4392.82,4437.44,4725.64,4474.87,4535.38,4342.56,4226.15,3947.69,1653,1694,6.037,0,0,0,0,
92,4462.05,4017.44,4302.05,4132.31,4074.87,3585.13,4393.33,4436.41,4728.72,4467.18,4534.87,4346.67,4230.26,3955.9,1653,1693,6.044,0,0,0,0,
93,4462.56,4018.46,4304.1,4135.38,4071.79,3596.41,4412.31,4449.74,4754.87,4484.62,4535.38,4354.87,4233.85,3958.97,1654,1694,6.052,0,0,0,0,
94,4471.28,4023.59,4310.77,4136.41,4072.82,3599.49,4415.38,4450.77,4749.23,4495.9,4539.49,4356.92,4240,3961.03,1654,1694,6.06,0,0,0,0,
95,4477.95,4031.79,4314.36,4141.03,4087.69,3591.79,4402.05,4442.56,4726.67,4493.85,4552.31,4356.41,4248.72,3968.21,1655,1692,6.068,0,0,0,0,
96,4474.36,4031.79,4310.26,4141.54,4090.26,3594.87,4403.59,4445.13,4732.82,4496.92,4551.28,4352.31,4242.05,3965.64,1656,1689,6.076,0,0,0,0,
97,4470.26,4024.1,4306.15,4136.41,4075.38,3600.51,4412.82,4446.67,4740.51,4487.69,4534.87,4344.62,4230.77,3954.87,1656,1690,6.084,0,0,0,0,
98,4473.33,4024.62,4310.26,4140,4074.87,3593.85,4408.72,4440,4730.26,4469.23,4532.31,4343.08,4232.31,3953.85,1656,1689,6.091,0,0,0,0,
99,4479.49,4035.9,4315.38,4152.31,4087.69,3590.26,4402.56,4441.03,4722.56,4478.46,4542.56,4350.77,4238.46,3960.51,1654,1692,6.099,0,0,0,0,
100,4480,4037.95,4312.31,4154.87,4083.08,3593.85,4403.59,4444.1,4725.13,4492.31,4538.97,4354.36,4234.36,3963.08,1655,1693,6.107,0,0,0,0,
101,4473.33,4033.85,4306.67,4150.77,4079.49,3592.82,4406.15,4441.54,4731.28,4480.51,4531.28,4348.21,4233.85,3957.44,1653,1693,6.115,0,0,0,0,
102,4473.85,4036.92,4309.74,4154.87,4090.77,3593.33,4409.23,4449.74,4737.44,4480.51,4537.95,4349.23,4245.13,3955.9,1654,1694,6.123,0,0,0,0,
103,4478.46,4033.33,4312.31,4152.31,4088.21,3596.92,4412.31,4455.9,4736.92,4495.9,4543.59,4351.28,4249.74,3961.03,1653,1693,6.13,0,0,0,0,
104,4465.64,4020,4301.03,4133.33,4074.36,3599.49,4412.82,4453.33,4733.33,4494.36,4537.44,4342.05,4237.44,3954.36,1653,1693,6.138,0,0,0,0,
105,4455.9,4023.08,4294.87,4136.41,4081.03,3602.05,4412.82,4454.87,4735.9,4488.72,4532.82,4340.51,4229.23,3946.67,1653,1691,6.146,0,0,0,0,
106,4469.74,4036.41,4308.72,4153.85,4094.87,3603.08,4414.87,4459.49,4737.44,4490.77,4536.41,4349.23,4236.41,3955.38,1653,1691,6.154,0,0,0,0,
107,4480,4036.41,4315.9,4143.08,4092.82,3604.1,4413.85,4458.46,4737.44,4484.62,4536.92,4351.79,4247.69,3960.51,1654,1689,6.162,0,0,0,0,
108,4476.41,4034.36,4309.74,4137.44,4085.64,3607.69,4413.85,4454.36,4735.9,4477.44,4536.41,4352.82,4247.69,3957.95,1654,1689,6.17,0,0,0,0,
109,4476.41,4034.36,4309.74,4152.82,4083.59,3604.1,4412.31,4448.72,4731.28,4479.49,4537.95,4353.85,4235.38,3958.97,1656,1687,6.177,0,0,0,0,
110,4472.31,4027.18,4310.26,4148.21,4083.08,3595.38,4406.67,4445.13,4736.41,4477.95,4536.41,4345.13,4231.28,3956.41,1655,1688,6.185,0,0,0,0,
111,4471.79,4034.36,4309.23,4140.51,4087.18,3596.92,4405.64,4446.15,4738.97,4481.03,4535.38,4345.13,4249.23,3961.03,1657,1689,6.193,0,0,0,0,
112,4488.72,4053.33,4319.49,4160,4097.44,3604.62,4413.33,4446.15,4724.62,4501.03,4542.05,4361.54,4265.13,3974.87,1656,1691,6.201,0,0,0,0,
113,4491.28,4040,4322.05,4156.41,4090.77,3604.1,4414.87,4443.08,4711.28,4504.1,4545.13,4362.05,4254.87,3968.72,1656,1692,6.209,0,0,0,0,
114,4471.28,4017.95,4308.21,4130.77,4074.36,3601.03,4409.74,4442.05,4716.92,4475.38,4536.41,4346.15,4240.51,3957.95,1656,1692,6.216,0,0,0,0,
115,4474.87,4032.82,4309.23,4144.1,4078.97,3602.56,4412.31,4448.72,4732.82,4471.79,4537.95,4350.77,4249.74,3968.72,1655,1693,6.225,0,0,0,0,
116,4497.44,4049.23,4326.67,4169.23,4097.44,3604.1,4417.95,4462.05,4740,4504.1,4553.33,4367.69,4267.69,3981.54,1655,1692,6.232,0,0,0,0,
117,4494.36,4040.51,4323.08,4163.08,4098.97,3602.56,4416.92,4462.05,4728.72,4509.23,4551.79,4364.62,4263.59,3975.38,1654,1692,6.24,0,0,0,0,
118,4475.38,4029.74,4310.26,4142.56,4081.03,3597.95,4411.28,4444.1,4712.82,4476.41,4529.23,4352.31,4238.46,3962.05,1654,1690,6.248,0,0,0,0,
119,4474.87,4031.28,4314.36,4138.46,4072.31,3597.44,4409.74,4438.46,4717.44,4463.59,4523.08,4353.85,4230.26,3963.59,1653,1690,6.256,0,0,0,0,
120,4485.64,4033.85,4319.49,4151.79,4088.21,3603.59,4420.51,4450.77,4730.77,4488.21,4538.97,4360.51,4247.69,3972.31,1653,1689,6.263,0,0,0,0,
121,4482.05,4030.77,4311.79,4155.9,4099.49,3606.15,4421.03,4450.26,4721.54,4497.95,4537.95,4350.77,4252.31,3964.62,1652,1690,6.271,0,0,0,0,
122,4472.31,4033.33,4307.69,4153.33,4089.23,3602.05,4411.28,4439.49,4707.18,4478.46,4524.1,4341.03,4240.51,3952.31,1653,1689,6.28,0,0,0,0,
123,4483.08,4046.15,4315.9,4165.13,4092.31,3603.08,4420,4448.21,4719.49,4475.38,4530.26,4350.77,4246.15,3964.1,1652,1688,6.287,0,0,0,0,
124,4491.79,4048.21,4317.44,4170.77,4106.15,3609.23,4427.69,4461.54,4735.38,4490.26,4542.56,4359.49,4256.92,3973.33,1654,1689,6.295,0,0,0,0,
125,4481.54,4036.41,4311.79,4154.36,4099.49,3606.67,4418.97,4457.95,4729.23,4496.92,4537.44,4355.38,4250.77,3966.15,1655,1688,6.302,0,0,0,0,
126,4481.54,4038.46,4313.85,4149.23,4095.38,3602.05,4421.54,4458.46,4722.56,4504.1,4534.87,4360,4248.72,3970.77,1654,1691,6.31,0,0,0,0,
127,4487.18,4041.03,4320.51,4156.92,4092.82,3604.1,4427.18,4461.54,4720.51,4498.46,4542.05,4366.15,4253.85,3972.82,1655,1692,6.318,0,0,0,0,
128,4476.92,4026.67,4319.49,4152.31,4075.38,3602.05,4414.36,4449.23,4710.26,4476.92,4538.46,4357.44,4249.23,3958.97,1654,1693,6.326,0,0,0,0,
0,4472.82,4024.62,4321.03,4146.67,4077.44,3596.92,4412.31,4448.72,4707.18,4482.56,4533.33,4357.95,4245.64,3956.92,1655,1693,6.335,0,0,0,0,
1,4483.08,4034.36,4324.62,4155.9,4096.41,3598.97,4420.51,4458.97,4711.79,4495.9,4536.41,4365.64,4248.72,3963.59,1654,1693,6.342,0,0,0,0,
2,4480.51,4037.95,4320,4166.67,4096.41,3605.13,4416.92,4453.85,4711.28,4473.33,4535.38,4359.49,4248.72,3956.92,1655,1692,6.35,0,0,0,0,
3,4477.44,4044.1,4325.13,4170.77,4093.33,3609.74,4420,4452.82,4713.85,4468.72,4536.41,4360,4249.23,3960,1654,1690,6.357,0,0,0,0,
4,4490.26,4048.72,4335.9,4163.08,4099.49,3606.15,4427.69,4462.05,4720.51,4493.85,4538.97,4371.28,4252.31,3973.85,1654,1690,6.366,0,0,0,0,
5,4491.28,4040.51,4331.79,4160,4096.41,3594.87,4423.08,4456.92,4717.95,4489.74,4530.26,4365.64,4248.72,3968.21,1654,1691,6.373,0,0,0,0,
6,4477.44,4030.26,4323.08,4158.97,4086.67,3593.85,4416.41,4442.56,4708.72,4466.67,4522.05,4354.87,4237.44,3955.38,1655,1691,6.381,0,0,0,0,
7,4471.28,4024.1,4323.59,4141.54,4083.08,3599.49,4414.87,4441.03,4703.08,4468.21,4523.08,4355.38,4229.74,3955.9,1655,1693,6.388,0,0,0,0,
8,4471.79,4016.92,4320.51,4131.79,4081.54,3592.31,4412.82,4443.08,4705.64,4474.87,4520,4353.33,4231.79,3955.9,1656,1693,6.396,0,0,0,0,
9,4469.74,4020,4311.28,4149.74,4085.64,3586.15,4407.69,4440,4713.33,4475.9,4522.56,4350.26,4240.51,3954.36,1656,1694,6.405,0,0,0,0,
10,4470.26,4033.33,4312.31,4156.41,4092.31,3591.28,4408.21,4445.64,4716.92,4484.62,4535.9,4357.44,4249.74,3958.46,1658,1692,6.412,0,0,0,0,
11,4472.31,4030.26,4319.49,4136.92,4092.82,3595.38,4411.79,4455.9,4716.92,4493.33,4537.95,4360,4252.31,3960,1657,1691,6.42,0,0,0,0,
12,4470.77,4017.95,4320.51,4137.44,4089.74,3597.95,4413.33,4458.97,4721.54,4494.87,4534.36,4352.31,4249.74,3954.87,1659,1690,6.428,0,0,0,0,
13,4474.87,4023.08,4319.49,4154.87,4091.28,3604.62,4415.9,4455.9,4723.08,4491.79,4538.97,4353.85,4248.21,3954.87,1658,1690,6.436,0,0,0,0,
14,4483.08,4042.05,4326.67,4152.31,4103.08,3604.1,4418.97,4459.49,4721.03,4492.31,4545.64,4367.18,4257.44,3969.74,1657,1691,6.443,0,0,0,0,
15,4485.13,4046.15,4332.31,4153.85,4110.26,3593.85,4417.44,4464.1,4725.13,4495.38,4549.23,4370.77,4270.26,3979.49,1658,1692,6.451,0,0,0,0,
16,4479.49,4036.92,4322.05,4167.18,4101.03,3593.85,4412.31,4458.46,4724.62,4490.77,4544.1,4358.97,4269.74,3965.64,1656,1694,6.459,0,0,0,0,
17,4473.85,4038.46,4312.82,4165.13,4094.36,3598.97,4411.28,4453.33,4716.92,4484.62,4535.38,4351.28,4261.03,3954.36,1657,1694,6.467,0,0,0,0,
18,4477.95,4047.18,4320,4157.44,4098.46,3595.38,4414.36,4460,4718.97,4491.79,4539.49,4358.97,4262.56,3962.05,1656,1695,6.475,0,0,0,0,
19,4474.36,4042.56,4322.56,4152.82,4094.87,3588.21,4414.36,4460,4719.49,4493.85,4538.46,4357.95,4260.51,3962.05,1655,1695,6.482,0,0,0,0,
20,4459.49,4022.05,4311.28,4142.05,4081.03,3587.69,4412.82,4448.72,4708.72,4477.95,4521.54,4341.54,4244.62,3949.74,1654,1696,6.49,0,0,0,0,
21,4463.08,4017.95,4313.33,4142.05,4081.54,3593.33,4413.33,4450.26,4711.79,4474.87,4522.05,4341.03,4242.56,3950.77,1655,1694,6.498,0,0,0,0,
22,4480,4034.36,4327.69,4157.95,4099.49,3600,4415.9,4458.97,4718.97,4488.21,4540,4356.92,4258.46,3961.54,1653,1694,6.506,0,0,0,0,
23,4478.97,4042.05,4326.15,4156.41,4108.72,3604.1,4418.46,4457.44,4718.97,4493.85,4540,4361.03,4261.03,3963.59,1654,1692,6.514,0,0,0,0,
24,4467.69,4034.87,4317.95,4145.13,4100,3603.08,4419.49,4455.9,4722.05,4490.26,4526.67,4350.77,4249.74,3958.46,1653,1690,6.521,0,0,0,0,
25,4462.05,4027.18,4316.41,4150.77,4094.36,3602.56,4416.92,4453.33,4722.05,4488.21,4523.08,4342.05,4243.08,3951.79,1654,1691,6.53,0,0,0,0,
26,4460,4032.31,4317.95,4156.92,4101.54,3606.15,4416.92,4451.79,4718.46,4489.23,4521.03,4343.59,4243.08,3952.31,1654,1691,6.537,0,0,0,0,
27,4468.72,4036.92,4321.03,4150.77,4101.54,3603.08,4418.97,4456.92,4723.08,4490.77,4521.03,4353.85,4248.21,3957.44,1653,1693,6.545,0,0,0,0,
28,4477.44,4031.79,4322.05,4151.28,4087.18,3593.33,4415.9,4456.92,4724.1,4489.74,4535.38,4357.44,4256.92,3960,1655,1694,6.553,0,0,0,0,
29,4476.92,4033.33,4322.56,4159.49,4089.23,3589.74,4410.26,4452.82,4717.95,4494.87,4544.1,4355.9,4263.08,3965.13,1653,1694,6.561,0,0,0,0,
30,4487.18,4046.67,4332.31,4159.49,4107.18,3595.38,4414.36,4458.97,4721.03,4505.13,4541.03,4364.1,4267.18,3977.95,1655,1694,6.568,0,0,0,0,
31,4491.79,4045.64,4336.41,4152.82,4102.05,3591.79,4416.92,4456.92,4719.49,4497.95,4537.44,4367.69,4266.15,3975.38,1655,1692,6.576,0,0,0,0,
32,4475.9,4031.79,4326.67,4149.23,4086.15,3585.64,4411.79,4445.64,4709.74,4485.64,4530.26,4357.95,4253.85,3960,1656,1692,6.584,0,0,0,0,
33,4468.21,4037.44,4322.05,4156.92,4097.95,3595.9,4412.82,4452.31,4714.36,4487.69,4522.56,4354.87,4249.23,3962.56,1656,1691,6.592,0,0,0,0,
34,4480.51,4053.33,4328.21,4170.26,4111.28,3602.56,4417.95,4458.46,4723.59,4490.77,4526.67,4360.51,4262.56,3972.82,1658,1690,6.6,0,0,0,0,
35,4483.59,4047.18,4327.18,4165.13,4092.82,3590.26,4414.36,4445.64,4713.85,4486.67,4526.67,4355.9,4264.1,3967.69,1657,1690,6.607,0,0,0,0,
36,4474.36,4033.85,4324.62,4149.23,4081.03,3585.13,4408.72,4438.46,4705.13,4486.67,4519.49,4351.28,4248.72,3963.08,1657,1692,6.616,0,0,0,0,
37,4476.41,4037.95,4327.69,4154.87,4096.41,3596.92,4416.92,4446.15,4714.87,4493.33,4528.21,4356.92,4250.26,3968.21,1658,1692,6.623,0,0,0,0,
38,4487.69,4046.15,4328.21,4169.23,4107.69,3605.13,4422.05,4448.21,4722.56,4497.44,4534.36,4360,4258.46,3972.82,1655,1693,6.631,0,0,0,0,
39,4491.28,4046.67,4326.15,4173.33,4105.13,3603.59,4414.36,4442.56,4715.9,4493.33,4525.13,4356.92,4252.82,3972.31,1657,1694,6.639,0,0,0,0,
40,4487.18,4049.74,4327.18,4171.28,4104.62,3602.56,4412.31,4446.67,4712.82,4485.13,4527.18,4357.44,4254.36,3971.79,1655,1693,6.647,0,0,0,0,
41,4486.15,4052.31,4327.18,4161.03,4101.03,3600,4418.97,4455.9,4723.59,4490.77,4540.51,4360,4266.67,3970.77,1655,1693,6.654,0,0,0,0,
42,4489.74,4048.21,4328.21,4155.9,4090.77,3598.97,4425.13,4460.51,4732.82,4506.15,4539.49,4358.97,4268.72,3972.31,1654,1693,6.662,0,0,0,0,
43,4487.69,4046.67,4330.77,4169.23,4094.36,3603.08,4427.69,4460,4734.87,4508.21,4527.18,4359.49,4264.1,3974.36,1655,1693,6.67,0,0,0,0,
44,4478.97,4047.18,4326.67,4165.13,4105.64,3604.62,4428.21,4461.03,4735.38,4495.38,4522.56,4356.41,4264.1,3971.28,1654,1691,6.678,0,0,0,0,
45,4472.82,4043.08,4325.64,4147.69,4106.15,3603.08,4428.72,4461.03,4731.79,4488.72,4524.1,4350.77,4257.95,3964.62,1654,1692,6.686,0,0,0,0,
46,4477.95,4035.9,4333.85,4156.41,4101.03,3604.1,4430.77,4456.92,4721.54,4488.72,4524.62,4355.38,4251.28,3966.67,1654,1691,6.694,0,0,0,0,
47,4480.51,4033.33,4331.79,4168.72,4095.9,3604.1,4425.13,4448.21,4711.28,4482.56,4521.54,4358.46,4248.72,3967.18,1654,1693,6.701,0,0,0,0,
48,4472.31,4038.97,4320,4160,4091.79,3603.08,4419.49,4446.15,4712.31,4477.95,4520.51,4351.79,4249.74,3958.46,1654,1692,6.709,0,0,0,0,
49,4472.82,4044.62,4324.62,4150.26,4093.85,3600.51,4425.13,4454.87,4726.67,4489.74,4523.59,4353.85,4257.95,3962.05,1653,1692,6.717,0,0,0,0,
50,4484.62,4043.59,4337.44,4158.46,4100.51,3598.97,4429.23,4461.54,4737.44,4505.13,4525.13,4366.15,4265.13,3977.44,1654,1691,6.725,0,0,0,0,
51,4485.13,4038.46,4332.82,4167.18,4098.46,3601.54,4426.67,4460,4733.85,4500,4526.15,4368.72,4263.59,3976.41,1652,1691,6.733,0,0,0,0,
52,4476.41,4039.49,4327.69,4157.95,4094.87,3604.62,4427.18,4461.03,4731.79,4487.69,4526.67,4366.15,4260,3970.26,1653,1692,6.74,0,0,0,0,
53,4475.9,4039.49,4334.87,4147.18,4093.33,3600.51,4429.23,4463.08,4737.95,4493.33,4526.15,4368.21,4257.44,3975.9,1653,1691,6.748,0,0,0,0,
54,4475.9,4025.13,4333.33,4151.28,4084.62,3596.41,4429.23,4459.49,4730.77,4496.41,4523.08,4363.59,4249.23,3971.28,1653,1691,6.756,0,0,0,0,
55,4472.82,4014.87,4325.13,4156.92,4078.97,3599.49,4426.15,4455.38,4717.44,4484.62,4518.97,4354.87,4246.15,3957.44,1654,1689,6.764,0,0,0,0,
56,4472.82,4026.67,4328.72,4153.85,4089.74,3604.1,4428.72,4460,4727.69,4481.03,4517.95,4358.46,4251.79,3958.46,1655,1688,6.772,0,0,0,0,
57,4471.79,4037.95,4330.77,4156.92,4103.59,3604.62,4438.46,4465.13,4742.05,4490.26,4521.03,4366.67,4251.28,3966.15,1657,1686,6.78,0,0,0,0,
58,4469.23,4034.36,4325.13,4155.38,4105.13,3603.08,4437.95,4459.49,4729.74,4493.33,4523.59,4363.59,4246.15,3967.69,1657,1687,6.787,0,0,0,0,
59,4474.87,4033.85,4333.33,4151.28,4104.62,3602.05,4429.23,4454.36,4719.49,4490.26,4526.67,4362.05,4255.38,3970.26,1658,1689,6.796,0,0,0,0,
60,4480,4038.46,4341.03,4164.1,4101.54,3602.05,4429.23,4457.95,4731.79,4489.74,4528.21,4367.69,4266.15,3975.9,1658,1691,6.803,0,0,0,0,
61,4476.92,4040.51,4334.36,4170.77,4091.28,3603.08,4431.79,4460,4734.36,4491.28,4525.64,4364.62,4257.44,3971.79,1657,1692,6.811,0,0,0,0,
62,4480,4037.44,4336.92,4166.15,4088.21,3602.56,4427.18,4456.92,4724.1,4492.31,4521.54,4356.41,4247.18,3963.59,1657,1694,6.819,0,0,0,0,
63,4479.49,4034.87,4340,4161.03,4093.85,3601.03,4426.67,4456.41,4724.1,4491.28,4517.44,4350.77,4249.74,3960.51,1656,1694,6.826,0,0,0,0,
64,4469.23,4041.03,4327.69,4160.51,4093.85,3601.03,4429.23,4457.95,4732.31,4490.77,4520,4348.72,4249.23,3959.49,1655,1694,6.835,0,0,0,0,
65,4466.15,4046.15,4321.03,4158.97,4086.15,3596.41,4428.72,4460,4732.82,4490.77,4520,4352.31,4244.1,3957.44,1653,1694,6.842,0,0,0,0,
66,4468.21,4035.9,4328.21,4157.44,4086.67,3588.72,4428.72,4459.49,4728.21,4490.26,4514.36,4357.44,4244.62,3957.44,1652,1694,6.85,0,0,0,0,
67,4461.03,4025.13,4327.18,4155.9,4092.82,3585.13,4426.67,4457.44,4725.64,4492.82,4512.82,4352.31,4246.67,3956.92,1653,1692,6.858,0,0,0,0,
68,4455.38,4025.64,4322.05,4147.18,4086.15,3586.67,4424.62,4457.44,4725.13,4491.79,4508.72,4345.64,4245.13,3953.33,1652,1690,6.866,0,0,0,0,
69,4465.64,4025.64,4327.69,4144.1,4073.33,3587.18,4426.15,4457.95,4727.69,4488.21,4508.21,4354.36,4245.64,3957.44,1654,1687,6.873,0,0,0,0,
70,4473.33,4027.69,4334.36,4150.77,4078.46,3585.64,4428.21,4458.46,4726.15,4491.79,4517.95,4365.64,4250.77,3969.23,1653,1687,6.881,0,0,0,0,
71,4474.87,4034.36,4337.95,4156.41,4094.87,3587.69,4427.18,4460.51,4721.54,4492.31,4517.44,4363.08,4253.85,3970.26,1654,1688,6.89,0,0,0,0,
