eeg data - format version 0.2: COUNTER,AF3,F7,F3, FC5, T7, P7, O1, O2,P8, T8, FC6, F4,F8, AF4,GYROX, GYROY, TIMESTAMP, FUNC_ID, FUNC_VALUE, MARKER, SYNC_SIGNAL, Cognitiv Action, Cognitiv Power,
6,4104.62,4169.23,4091.79,3864.1,4405.64,4183.08,4587.69,4554.87,4293.33,3935.9,4249.23,4626.15,4374.36,4649.74,1693,1708,0.249,0,0,0,0,1,0,
7,4093.85,4167.18,4083.59,3861.03,4404.62,4182.56,4588.72,4554.87,4282.56,3942.56,4245.13,4621.03,4367.18,4641.54,1693,1709,0.256,0,0,0,0,1,0,
8,4092.82,4169.74,4080.51,3862.56,4411.28,4186.15,4590.77,4557.95,4285.64,3943.59,4233.85,4615.9,4370.26,4639.49,1694,1709,0.265,0,0,0,0,1,0,
9,4093.85,4167.18,4077.95,3862.56,4411.28,4185.64,4587.18,4557.95,4293.33,3932.31,4227.69,4608.21,4368.21,4636.92,1692,1711,0.272,0,0,0,0,1,0,
10,4078.97,4163.59,4069.23,3855.38,4403.08,4184.1,4585.13,4551.28,4283.08,3921.03,4223.59,4600.51,4354.87,4622.56,1694,1710,0.28,0,0,0,0,1,0,
11,4069.23,4162.56,4064.1,3847.69,4399.49,4185.64,4587.69,4548.21,4276.92,3926.15,4215.38,4596.41,4354.87,4614.87,1693,1710,0.288,0,0,0,0,1,0,
12,4080.51,4160.51,4072.31,3852.82,4399.49,4187.18,4589.23,4553.85,4289.74,3932.82,4223.08,4601.54,4370.26,4626.67,1694,1710,0.295,0,0,0,0,1,0,
13,4086.67,4157.95,4077.44,3857.95,4404.1,4184.62,4588.72,4554.36,4292.31,3917.95,4239.49,4606.15,4370.26,4634.87,1693,1709,0.303,0,0,0,0,1,0,
14,4077.44,4154.36,4070.26,3851.79,4409.74,4181.54,4588.72,4544.1,4277.95,3908.21,4232.31,4603.59,4353.85,4621.54,1693,1710,0.325,0,0,0,0,1,0,
15,4073.33,4154.36,4065.13,3851.28,4408.21,4183.08,4586.15,4538.97,4272.31,3925.64,4214.87,4598.46,4349.74,4612.31,1693,1709,0.326,0,0,0,0,1,0,
16,4078.46,4161.54,4069.74,3861.03,4411.79,4185.13,4585.64,4541.03,4277.44,3934.87,4213.33,4597.95,4359.49,4618.97,1692,1710,0.327,0,0,0,0,1,0,
17,4082.56,4168.72,4074.87,3865.13,4413.85,4183.59,4585.13,4539.49,4283.08,3927.18,4218.97,4600,4356.92,4624.62,1692,1709,0.583,0,0,0,0,1,0,
18,4085.13,4167.18,4074.36,3861.03,4407.18,4182.56,4577.95,4541.03,4280.51,3926.15,4225.64,4604.62,4342.56,4626.67,1691,1710,0.588,0,0,0,0,1,0,
19,4090.77,4168.72,4075.9,3860,4404.1,4185.13,4577.44,4549.23,4285.13,3927.69,4229.23,4611.28,4348.72,4630.77,1693,1709,0.588,0,0,0,0,1,0,
20,4090.26,4170.26,4078.97,3864.62,4410.77,4185.64,4584.62,4555.9,4296.92,3930.26,4223.59,4610.26,4368.21,4634.36,1691,1710,0.588,0,0,0,0,1,0,
21,4080,4160.51,4074.87,3863.59,4412.31,4185.13,4587.18,4553.33,4291.79,3926.15,4217.44,4602.56,4359.49,4628.21,1693,1710,0.588,0,0,0,0,1,0,
22,4074.36,4151.79,4067.18,3853.33,4405.64,4187.18,4583.08,4546.15,4277.95,3913.33,4218.46,4599.49,4342.56,4620,1692,1710,0.588,0,0,0,0,1,0,
23,4072.31,4149.23,4065.13,3845.13,4396.41,4181.54,4575.38,4540.51,4275.38,3915.38,4216.92,4597.95,4346.15,4613.85,1693,1711,0.588,0,0,0,0,1,0,
24,4075.38,4151.79,4068.21,3850.77,4392.31,4166.67,4570.26,4538.97,4279.49,3925.64,4212.82,4596.41,4351.28,4618.97,1693,1711,0.588,0,0,0,0,1,0,
25,4086.15,4157.44,4074.36,3861.54,4401.54,4163.59,4577.44,4542.56,4277.44,3930.26,4220,4604.62,4353.85,4630.77,1693,1711,0.588,0,0,0,0,1,0,
26,4090.26,4160.51,4078.46,3864.1,4407.69,4181.54,4587.18,4552.31,4280.51,3941.54,4230.77,4612.82,4363.59,4635.9,1693,1711,0.588,0,0,0,0,1,0,
27,4083.08,4156.92,4072.31,3853.33,4400,4186.15,4584.62,4552.82,4284.1,3946.67,4226.15,4605.64,4359.49,4629.74,1693,1712,0.588,0,0,0,0,1,0,
28,4075.9,4153.33,4064.62,3846.67,4395.9,4171.28,4579.49,4538.46,4274.87,3929.23,4214.36,4597.44,4339.49,4622.05,1693,1711,0.588,0,0,0,0,1,0,
29,4080,4156.41,4070.26,3853.33,4397.44,4171.28,4582.05,4542.05,4275.9,3922.56,4222.56,4601.54,4344.62,4626.67,1692,1711,0.588,0,0,0,0,1,0,
30,4084.62,4156.92,4075.9,3854.87,4395.9,4185.13,4588.21,4556.92,4288.21,3930.26,4234.36,4605.13,4366.15,4631.79,1693,1711,0.588,0,0,0,0,1,0,
31,4083.08,4156.41,4071.79,3852.82,4396.92,4185.64,4589.23,4547.18,4278.97,3918.97,4223.59,4601.54,4364.62,4628.21,1692,1711,0.588,0,0,0,0,1,0,
32,4082.05,4157.44,4069.23,3857.44,4401.54,4172.31,4584.62,4532.82,4260,3910.26,4212.82,4602.56,4352.31,4626.67,1693,1711,0.588,0,0,0,0,1,0,
33,4087.18,4156.92,4077.44,3858.46,4397.44,4169.23,4582.56,4540.51,4270.77,3926.67,4223.08,4611.28,4354.36,4635.9,1692,1712,0.588,0,0,0,0,1,0,
34,4094.36,4157.44,4086.15,3857.95,4395.9,4180.51,4587.18,4555.38,4293.33,3948.21,4235.38,4622.05,4368.21,4645.64,1692,1712,0.588,0,0,0,0,1,0,
35,4091.28,4157.44,4085.13,3861.03,4400.51,4188.72,4590.26,4555.9,4290.26,3948.72,4227.69,4621.03,4369.23,4642.05,1692,1710,0.588,0,0,0,0,1,0,
36,4080,4153.33,4076.92,3853.85,4399.49,4186.15,4587.18,4548.21,4276.41,3929.74,4214.87,4608.21,4355.38,4631.79,1692,1711,0.588,0,0,0,0,1,0,
37,4073.33,4149.74,4071.79,3845.13,4395.9,4184.1,4588.72,4545.64,4273.85,3915.9,4214.36,4605.13,4348.21,4628.72,1694,1711,0.588,0,0,0,0,1,0,
38,4079.49,4151.28,4074.36,3849.74,4394.87,4185.64,4593.85,4553.33,4281.03,3929.74,4218.97,4611.79,4356.92,4633.85,1693,1711,0.588,0,0,0,0,1,0,
39,4084.62,4153.33,4075.9,3852.82,4394.87,4184.62,4590.77,4553.85,4280,3944.62,4216.41,4607.69,4362.05,4633.85,1694,1711,0.588,0,0,0,0,1,0,
40,4077.95,4152.31,4074.36,3850.26,4396.92,4182.56,4584.1,4540.51,4265.64,3927.18,4211.28,4600,4350.26,4629.23,1693,1711,0.588,0,0,0,0,1,0,
41,4075.9,4150.77,4073.33,3849.23,4400,4182.56,4584.1,4539.49,4266.15,3916.92,4214.87,4604.62,4349.74,4629.23,1694,1711,0.588,0,0,0,0,1,0,
42,4084.1,4153.33,4073.85,3848.21,4398.46,4181.54,4586.15,4553.33,4285.64,3936.92,4218.46,4609.23,4363.08,4631.28,1693,1711,0.588,0,0,0,0,1,0,
43,4088.21,4155.9,4077.44,3853.85,4396.41,4182.56,4584.1,4557.95,4289.74,3944.62,4218.97,4611.79,4361.54,4632.82,1693,1708,0.588,0,0,0,0,1,0,
44,4086.67,4156.41,4078.46,3861.03,4398.46,4184.62,4582.56,4551.79,4276.41,3938.97,4222.56,4615.38,4351.79,4633.33,1693,1709,0.588,0,0,0,0,1,0,
45,4086.67,4162.05,4074.36,3862.56,4395.9,4184.62,4580.51,4552.82,4273.33,3942.05,4220.51,4609.74,4357.95,4631.79,1694,1710,0.588,0,0,0,0,1,0,
46,4088.21,4167.18,4076.41,3861.03,4394.36,4181.03,4575.9,4556.92,4278.97,3945.13,4216.92,4606.15,4372.82,4632.31,1693,1711,0.588,0,0,0,0,1,0,
47,4093.33,4168.72,4084.62,3862.05,4406.67,4182.05,4573.85,4557.44,4284.1,3948.72,4227.18,4618.97,4382.05,4640.51,1693,1711,0.588,0,0,0,0,1,0,
48,4095.9,4168.21,4086.15,3863.08,4415.38,4186.67,4574.36,4556.41,4287.18,3951.28,4236.41,4626.67,4382.56,4648.72,1693,1712,0.588,0,0,0,0,1,0,
49,4092.31,4168.21,4085.64,3863.59,4407.18,4185.64,4572.82,4556.92,4282.05,3942.05,4232.82,4618.97,4376.41,4646.15,1693,1712,0.588,0,0,0,0,1,0,
50,4090.26,4168.21,4089.23,3863.08,4403.08,4183.59,4569.74,4554.36,4278.46,3939.49,4233.33,4616.41,4373.33,4640,1691,1714,0.593,0,0,0,0,1,0,
51,4092.31,4165.13,4089.23,3862.05,4410.26,4184.62,4570.77,4544.1,4277.95,3945.13,4229.74,4618.46,4369.23,4640.51,1693,1714,0.6,0,0,0,0,1,0,
52,4093.33,4166.15,4088.72,3862.56,4401.54,4183.08,4572.82,4542.56,4276.92,3940,4220,4618.46,4365.64,4647.18,1691,1714,0.608,0,0,0,0,1,0,
53,4095.9,4167.18,4093.33,3862.05,4387.18,4175.9,4571.28,4552.31,4283.08,3944.62,4228.21,4624.62,4375.38,4651.28,1692,1715,0.616,0,0,0,0,1,0,
54,4098.46,4158.46,4091.28,3860.51,4392.31,4170.26,4571.79,4553.85,4278.97,3944.1,4236.92,4626.67,4380.51,4647.69,1693,1714,0.625,0,0,0,0,1,0,
55,4100,4154.36,4092.82,3859.49,4401.54,4172.82,4573.33,4547.69,4262.05,3927.18,4231.28,4623.59,4373.85,4647.18,1693,1714,0.632,0,0,0,0,1,0,
56,4105.64,4164.1,4103.08,3863.08,4398.97,4174.87,4572.31,4550.26,4265.64,3932.31,4231.79,4633.33,4376.92,4661.03,1693,1711,0.64,0,0,0,0,1,0,
57,4108.72,4169.74,4103.59,3864.1,4395.38,4169.74,4572.31,4555.9,4280.51,3946.15,4238.46,4643.08,4379.49,4666.67,1692,1710,0.647,0,0,0,0,1,0,
58,4106.67,4163.08,4096.92,3859.49,4396.41,4167.18,4576.41,4555.9,4278.97,3937.44,4235.9,4636.92,4368.72,4656.92,1693,1709,0.657,0,0,0,0,1,0,
59,4103.08,4157.44,4092.82,3859.49,4395.9,4169.74,4575.38,4556.41,4276.92,3934.36,4231.79,4629.23,4366.67,4651.28,1693,1709,0.663,0,0,0,0,1,0,
60,4098.46,4159.49,4091.28,3863.59,4393.85,4167.18,4569.74,4555.9,4287.69,3952.31,4231.28,4630.26,4374.87,4651.79,1694,1709,0.671,0,0,0,0,1,0,
61,4097.44,4166.67,4091.28,3864.62,4399.49,4169.74,4574.87,4555.9,4289.74,3956.92,4233.85,4628.72,4382.56,4648.72,1693,1710,0.679,0,0,0,0,1,0,
62,4098.46,4169.23,4092.31,3865.13,4408.72,4183.59,4584.62,4554.36,4282.05,3936.92,4232.82,4621.54,4382.56,4642.56,1694,1711,0.687,0,0,0,0,1,0,
63,4092.82,4165.13,4088.21,3863.59,4407.69,4181.54,4584.1,4550.77,4275.38,3918.46,4227.18,4614.87,4376.41,4637.95,1693,1710,0.695,0,0,0,0,1,0,
64,4092.31,4166.15,4086.67,3862.56,4403.08,4172.31,4582.05,4552.31,4281.54,3925.13,4229.74,4618.46,4376.92,4641.03,1693,1711,0.702,0,0,0,0,1,0,
65,4103.08,4170.26,4091.28,3864.62,4406.15,4176.41,4584.62,4558.46,4303.08,3963.08,4240,4633.85,4386.15,4651.28,1695,1709,0.71,0,0,0,0,1,0,
66,4102.05,4165.13,4090.26,3864.62,4404.1,4180.51,4584.62,4558.46,4308.21,3981.03,4235.9,4637.44,4388.21,4651.79,1694,1711,0.718,0,0,0,0,1,0,
67,4090.26,4155.38,4082.05,3860.51,4402.05,4180.51,4583.08,4554.87,4287.18,3944.62,4229.23,4620,4378.46,4641.03,1695,1709,0.726,0,0,0,0,1,0,
68,4088.21,4153.33,4078.97,3859.49,4409.23,4186.15,4585.64,4562.56,4284.1,3924.1,4239.49,4615.38,4375.9,4641.54,1694,1710,0.733,0,0,0,0,1,0,
69,4092.31,4156.92,4082.56,3861.54,4408.21,4188.72,4588.21,4572.82,4303.59,3960.51,4245.13,4625.64,4382.05,4644.1,1694,1711,0.741,0,0,0,0,1,0,
70,4089.74,4154.87,4081.03,3861.54,4402.56,4184.62,4585.64,4566.67,4303.08,3974.36,4230.77,4623.08,4384.62,4636.92,1694,1711,0.75,0,0,0,0,1,0,
71,4086.15,4154.87,4075.9,3861.03,4411.28,4184.62,4583.08,4552.82,4287.18,3941.54,4217.44,4610.77,4381.03,4630.77,1695,1711,0.757,0,0,0,0,1,0,
72,4086.15,4157.95,4074.87,3860.51,4415.9,4184.62,4584.1,4543.59,4283.59,3933.85,4217.44,4609.74,4375.38,4632.31,1693,1712,0.765,0,0,0,0,1,0,
73,4087.18,4152.82,4073.85,3861.03,4405.64,4184.62,4585.13,4538.46,4280,3944.62,4216.41,4612.82,4372.31,4635.9,1694,1712,0.773,0,0,0,0,1,0,
74,4088.72,4156.41,4076.92,3862.05,4404.62,4187.69,4585.13,4541.54,4276.92,3929.23,4216.92,4614.36,4373.85,4640,1694,1711,0.78,0,0,0,0,1,0,
75,4091.79,4168.21,4085.13,3863.59,4412.82,4188.72,4585.13,4551.79,4291.28,3916.92,4228.72,4618.97,4378.97,4645.64,1693,1712,0.788,0,0,0,0,1,0,
76,4093.33,4163.08,4086.67,3867.69,4409.74,4189.74,4585.64,4554.36,4302.05,3934.87,4232.31,4620.51,4381.03,4643.59,1694,1710,0.796,0,0,0,0,1,0,
77,4084.1,4150.26,4075.9,3858.97,4403.59,4190.26,4586.67,4550.77,4297.95,3955.38,4217.44,4610.77,4378.97,4633.85,1693,1711,0.804,0,0,0,0,1,0,
78,4074.87,4149.74,4067.18,3846.15,4408.21,4186.67,4587.18,4551.79,4294.87,3952.31,4209.23,4600,4370.26,4625.64,1695,1709,0.812,0,0,0,0,1,0,
79,4081.54,4154.87,4070.77,3851.28,4412.82,4191.28,4586.67,4552.82,4294.87,3938.97,4218.97,4604.1,4364.1,4626.15,1694,1709,0.82,0,0,0,0,1,0,
80,4086.67,4153.33,4075.9,3862.05,4410.26,4200,4586.67,4552.31,4291.79,3939.49,4221.54,4611.28,4371.28,4631.79,1694,1710,0.827,0,0,0,0,1,0,
81,4081.03,4152.82,4074.87,3861.54,4415.38,4192.82,4588.21,4553.85,4292.31,3949.23,4213.85,4606.67,4383.08,4632.31,1694,1710,0.835,0,0,0,0,1,0,
82,4082.05,4162.05,4075.38,3858.46,4422.56,4182.56,4589.74,4557.44,4300,3942.56,4221.03,4609.74,4382.56,4631.79,1694,1710,0.843,0,0,0,0,1,0,
83,4088.21,4169.23,4077.44,3860.51,4415.9,4186.15,4588.72,4556.92,4305.64,3936.41,4238.46,4616.92,4377.44,4631.28,1693,1711,0.851,0,0,0,0,1,0,
84,4083.59,4160.51,4075.38,3860.51,4407.18,4188.72,4587.18,4556.92,4310.77,3955.9,4239.49,4609.74,4383.59,4631.28,1692,1713,0.863,0,0,0,0,1,0,
85,4078.97,4152.31,4071.28,3860.51,4409.74,4191.79,4587.69,4564.62,4315.38,3970.26,4229.23,4603.59,4390.26,4629.74,1692,1712,0.866,0,0,0,0,1,0,
86,4084.1,4162.05,4072.82,3862.05,4413.85,4198.97,4588.21,4568.72,4312.82,3964.62,4229.74,4609.74,4385.64,4629.74,1691,1713,0.874,0,0,0,0,1,0,
87,4088.21,4169.23,4075.9,3861.54,4411.28,4192.82,4588.72,4561.03,4305.13,3967.18,4232.82,4614.36,4383.08,4637.95,1692,1711,0.882,0,0,0,0,1,0,
88,4088.21,4167.18,4074.87,3862.05,4411.28,4180.51,4588.21,4555.38,4304.1,3976.41,4236.41,4615.9,4389.23,4646.67,1689,1711,0.89,0,0,0,0,1,0,
89,4095.38,4168.21,4079.49,3862.05,4416.41,4184.62,4587.18,4560.51,4308.21,3973.33,4249.74,4622.56,4394.87,4648.72,1692,1710,0.898,0,0,0,0,1,0,
90,4106.15,4170.26,4089.23,3863.08,4417.95,4195.9,4587.18,4569.23,4309.23,3961.03,4256.92,4628.72,4403.08,4652.31,1692,1710,0.905,0,0,0,0,1,0,
91,4104.62,4168.72,4088.21,3862.05,4414.36,4192.82,4587.69,4570.26,4301.54,3945.13,4247.69,4625.13,4400.51,4655.9,1693,1710,0.913,0,0,0,0,1,0,
92,4093.85,4167.69,4081.54,3860,4413.33,4184.62,4587.69,4565.13,4294.87,3941.54,4241.03,4619.49,4386.15,4649.74,1693,1707,0.921,0,0,0,0,1,0,
93,4088.72,4168.21,4081.03,3860.51,4411.79,4188.72,4588.21,4563.59,4300,3955.9,4234.87,4616.92,4388.21,4644.1,1694,1708,0.93,0,0,0,0,1,0,
94,4094.87,4168.72,4083.08,3862.05,4406.67,4191.79,4589.23,4569.23,4305.64,3966.15,4229.74,4616.92,4400,4648.72,1695,1707,0.937,0,0,0,0,1,0,
95,4103.59,4169.23,4086.67,3864.1,4408.21,4184.1,4588.21,4569.74,4305.13,3972.31,4238.97,4622.05,4400,4653.33,1695,1707,0.945,0,0,0,0,1,0,
96,4106.15,4169.23,4089.74,3865.13,4411.79,4182.05,4587.18,4558.97,4300,3973.33,4248.21,4625.64,4396.92,4651.79,1695,1707,0.952,0,0,0,0,1,0,
97,4103.08,4170.77,4085.64,3864.1,4409.74,4188.21,4586.15,4554.36,4296.92,3957.44,4247.69,4624.62,4395.9,4649.23,1695,1708,0.96,0,0,0,0,1,0,
98,4098.46,4172.31,4082.05,3863.59,4411.28,4184.62,4584.1,4557.95,4301.03,3948.72,4248.21,4625.13,4393.33,4648.72,1695,1707,0.968,0,0,0,0,1,0,
99,4094.36,4168.21,4083.08,3862.56,4416.41,4179.49,4581.03,4555.9,4304.62,3962.05,4241.54,4623.59,4388.72,4647.69,1695,1708,0.976,0,0,0,0,1,0,
100,4093.33,4167.18,4083.08,3860,4408.72,4182.56,4581.03,4549.74,4295.9,3958.97,4229.23,4618.46,4385.64,4646.15,1694,1708,0.984,0,0,0,0,1,0,
101,4096.41,4166.67,4082.05,3862.05,4400.51,4186.15,4583.08,4551.28,4294.36,3942.05,4233.33,4617.95,4393.85,4647.18,1694,1708,0.992,0,0,0,0,1,0,
102,4093.33,4159.49,4078.97,3863.08,4405.13,4185.64,4584.1,4557.44,4306.15,3947.18,4242.56,4621.03,4396.41,4643.59,1693,1707,1,0,0,0,0,1,0,
103,4083.08,4153.33,4076.41,3853.85,4405.13,4186.15,4584.62,4553.33,4297.95,3954.87,4236.41,4616.41,4378.46,4634.87,1694,1708,1.007,0,0,0,0,1,0,
104,4076.92,4153.85,4071.79,3845.13,4397.95,4186.15,4584.62,4543.08,4280.51,3941.54,4222.05,4607.18,4365.64,4629.74,1693,1707,1.021,0,0,0,0,1,0,
105,4074.36,4154.36,4066.15,3848.72,4394.87,4184.62,4581.54,4538.46,4278.97,3934.36,4212.82,4598.97,4375.9,4628.72,1693,1708,1.023,0,0,0,0,1,0,
106,4077.95,4154.36,4069.74,3856.92,4396.92,4184.1,4580,4540,4280.51,3945.64,4213.85,4601.54,4380,4630.26,1693,1706,1.031,0,0,0,0,1,0,
107,4088.21,4157.95,4077.95,3863.08,4405.13,4185.13,4582.05,4540,4284.62,3947.18,4218.97,4613.33,4373.85,4633.33,1692,1707,1.039,0,0,0,0,1,0,
108,4089.74,4158.97,4075.9,3858.97,4413.33,4184.62,4575.9,4538.46,4291.28,3936.92,4221.54,4610.77,4381.03,4632.82,1693,1707,1.046,0,0,0,0,1,0,
109,4083.59,4162.05,4071.28,3851.79,4408.72,4184.1,4568.72,4540.51,4291.79,3937.44,4226.67,4605.13,4391.28,4631.79,1692,1707,1.055,0,0,0,0,1,0,
110,4083.08,4167.18,4073.33,3855.9,4400.51,4184.62,4575.38,4542.56,4290.77,3947.18,4232.82,4612.82,4387.69,4633.33,1694,1707,1.062,0,0,0,0,1,0,
111,4083.59,4164.62,4073.33,3856.41,4405.64,4185.13,4584.62,4539.49,4288.21,3943.59,4229.23,4614.87,4375.38,4632.31,1692,1706,1.07,0,0,0,0,1,0,
112,4081.54,4158.46,4072.82,3847.69,4407.69,4186.15,4583.08,4542.05,4287.18,3940.51,4230.77,4608.21,4384.62,4634.87,1692,1707,1.078,0,0,0,0,1,0,
113,4086.15,4158.46,4075.9,3849.74,4397.95,4185.64,4580.51,4550.26,4295.9,3960,4240.51,4614.36,4401.54,4644.62,1692,1707,1.086,0,0,0,0,1,0,
114,4089.74,4158.46,4076.41,3861.03,4395.38,4186.67,4581.54,4548.21,4293.33,3962.05,4239.49,4620,4386.67,4644.1,1693,1709,1.093,0,0,0,0,1,0,
115,4084.1,4154.87,4074.36,3861.03,4400,4186.67,4578.97,4538.97,4278.97,3938.97,4231.28,4611.79,4371.28,4635.38,1694,1708,1.101,0,0,0,0,1,0,
116,4081.03,4154.87,4073.33,3851.28,4398.46,4182.56,4580,4543.59,4284.62,3944.1,4233.85,4613.33,4390.77,4638.46,1693,1711,1.109,0,0,0,0,1,0,
117,4083.08,4153.85,4075.9,3845.13,4393.33,4180.51,4584.1,4554.87,4294.87,3967.18,4236.41,4619.49,4405.64,4644.62,1694,1710,1.117,0,0,0,0,1,0,
118,4081.54,4150.26,4076.92,3845.64,4394.36,4183.08,4582.05,4550.26,4282.56,3951.28,4222.56,4611.28,4385.64,4635.9,1694,1711,1.125,0,0,0,0,1,0,
119,4076.92,4156.41,4072.31,3852.31,4401.03,4184.1,4577.95,4537.44,4274.87,3922.05,4213.85,4597.95,4371.79,4626.15,1695,1710,1.132,0,0,0,0,1,0,
120,4078.46,4167.18,4069.23,3860,4402.05,4183.59,4580,4538.46,4284.62,3929.74,4224.1,4596.41,4380,4628.21,1694,1709,1.141,0,0,0,0,1,0,
121,4083.59,4169.23,4074.36,3862.56,4397.95,4186.15,4578.46,4551.79,4292.31,3947.69,4236.41,4605.13,4385.64,4633.33,1696,1710,1.148,0,0,0,0,1,0,
122,4085.13,4165.13,4076.41,3855.38,4396.92,4188.21,4572.31,4555.38,4291.28,3942.56,4232.82,4606.15,4381.54,4633.33,1696,1708,1.156,0,0,0,0,1,0,
123,4081.03,4167.18,4069.23,3847.69,4400.51,4183.08,4570.77,4542.56,4285.64,3932.31,4221.03,4598.46,4377.95,4627.18,1696,1709,1.164,0,0,0,0,1,0,
124,4078.46,4167.69,4065.64,3849.23,4400.51,4178.97,4571.79,4536.92,4283.08,3943.08,4224.1,4595.9,4381.03,4621.54,1696,1708,1.171,0,0,0,0,1,0,
125,4078.46,4156.92,4068.21,3852.82,4400,4186.15,4574.87,4548.21,4289.74,3956.41,4234.36,4600.51,4383.59,4622.56,1696,1709,1.179,0,0,0,0,1,0,
126,4074.87,4153.33,4067.18,3849.23,4401.03,4188.72,4580.51,4554.87,4299.49,3961.03,4230.77,4601.03,4381.54,4627.69,1696,1707,1.187,0,0,0,0,1,0,
127,4073.33,4163.08,4066.67,3848.72,4398.46,4183.59,4583.59,4553.33,4298.97,3962.05,4224.1,4600.51,4382.56,4629.74,1695,1708,1.195,0,0,0,0,1,0,
128,4085.64,4171.79,4075.38,3862.05,4400.51,4191.79,4584.1,4555.9,4292.82,3956.92,4236.41,4609.74,4392.31,4640,1696,1707,1.203,0,0,0,0,1,0,
0,4097.44,4172.31,4084.62,3869.74,4407.18,4203.59,4587.69,4557.95,4302.05,3956.92,4245.13,4617.95,4397.44,4652.31,1693,1708,1.211,0,0,0,0,1,0,
1,4090.26,4165.64,4082.56,3859.49,4408.21,4203.59,4588.72,4558.46,4310.26,3963.59,4235.9,4617.95,4391.79,4646.67,1695,1709,1.218,0,0,0,0,1,0,
2,4081.03,4159.49,4076.92,3853.33,4407.18,4196.41,4583.08,4555.38,4293.85,3953.33,4231.79,4618.46,4392.31,4638.97,1694,1708,1.226,0,0,0,0,1,0,
3,4082.56,4163.59,4071.28,3857.95,4411.79,4189.23,4580.51,4544.62,4276.41,3939.49,4235.38,4614.36,4398.46,4638.97,1693,1709,1.234,0,0,0,0,1,0,
4,4082.56,4169.23,4069.23,3857.95,4408.21,4184.62,4580.51,4537.95,4283.59,3948.72,4237.44,4606.67,4387.18,4636.41,1694,1708,1.242,0,0,0,0,1,0,
5,4079.49,4165.64,4073.33,3856.92,4394.36,4188.21,4576.41,4541.54,4287.18,3949.74,4232.31,4606.15,4372.31,4630.77,1693,1710,1.25,0,0,0,0,1,0,
6,4080.51,4165.64,4074.36,3863.08,4398.46,4195.38,4574.36,4540.51,4276.92,3935.38,4221.03,4606.15,4384.62,4632.82,1694,1709,1.258,0,0,0,0,1,0,
7,4079.49,4166.67,4067.69,3864.1,4411.79,4195.9,4580,4536.41,4278.46,3938.46,4217.44,4599.49,4395.38,4633.85,1693,1710,1.265,0,0,0,0,1,0,
8,4076.92,4163.08,4065.13,3857.95,4405.64,4194.87,4583.59,4544.1,4290.26,3959.49,4231.79,4601.03,4382.56,4629.74,1694,1709,1.273,0,0,0,0,1,0,
9,4077.44,4164.1,4068.72,3859.49,4400.51,4201.03,4583.59,4553.85,4296.41,3970.77,4237.44,4612.82,4381.54,4635.9,1693,1709,1.282,0,0,0,0,1,0,
10,4080,4167.69,4068.72,3861.54,4409.23,4204.1,4586.15,4554.36,4295.38,3966.67,4230.26,4616.41,4398.46,4642.05,1694,1708,1.289,0,0,0,0,1,0,
11,4085.13,4167.69,4070.77,3861.03,4408.21,4188.72,4582.56,4551.28,4293.33,3958.97,4237.44,4614.87,4403.59,4642.05,1692,1708,1.297,0,0,0,0,1,0,
12,4091.28,4169.74,4076.41,3865.13,4401.03,4180.51,4577.44,4552.82,4297.95,3952.31,4252.31,4620.51,4403.08,4648.21,1693,1708,1.304,0,0,0,0,1,0,
13,4092.82,4172.31,4078.97,3869.74,4406.67,4193.85,4581.54,4556.92,4311.79,3959.49,4253.85,4624.1,4413.85,4656.92,1692,1708,1.312,0,0,0,0,1,0,
14,4091.79,4170.26,4075.9,3866.15,4412.31,4195.38,4583.59,4557.44,4313.85,3975.38,4248.21,4619.49,4416.41,4651.79,1692,1710,1.32,0,0,0,0,1,0,
15,4090.26,4167.18,4073.33,3859.49,4411.79,4185.13,4582.05,4553.33,4301.03,3977.95,4246.15,4616.41,4400,4642.05,1693,1707,1.329,0,0,0,0,1,0,
16,4091.79,4168.72,4075.38,3861.54,4412.31,4188.21,4584.1,4554.87,4302.05,3972.82,4248.72,4619.49,4393.85,4645.64,1692,1708,1.336,0,0,0,0,1,0,
17,4092.31,4169.23,4077.44,3865.64,4407.18,4192.31,4587.18,4563.08,4312.31,3970.77,4251.28,4621.03,4405.13,4650.26,1693,1708,1.344,0,0,0,0,1,0,
18,4088.72,4166.67,4075.9,3857.44,4401.03,4187.18,4586.15,4561.03,4305.64,3967.18,4244.1,4617.95,4404.62,4645.13,1694,1709,1.351,0,0,0,0,1,0,
19,4087.18,4166.67,4075.38,3851.28,4405.64,4186.15,4584.62,4554.87,4294.36,3955.9,4237.44,4617.44,4392.82,4642.56,1694,1709,1.36,0,0,0,0,1,0,
20,4090.26,4170.77,4075.9,3861.03,4405.64,4186.15,4583.59,4554.36,4297.44,3942.05,4242.56,4620,4394.36,4646.67,1694,1711,1.367,0,0,0,0,1,0,
21,4092.31,4169.74,4076.41,3868.21,4395.38,4186.15,4583.08,4559.49,4306.67,3948.21,4249.23,4624.62,4403.59,4647.18,1695,1711,1.375,0,0,0,0,1,0,
22,4093.85,4169.23,4077.95,3862.56,4400.51,4199.49,4585.64,4568.21,4316.92,3980,4253.33,4627.18,4411.79,4648.21,1693,1712,1.383,0,0,0,0,1,0,
23,4093.33,4169.23,4078.46,3860.51,4411.79,4206.67,4589.23,4570.26,4317.95,3987.69,4249.74,4622.05,4405.64,4648.72,1694,1711,1.391,0,0,0,0,1,0,
24,4083.59,4162.05,4074.87,3861.54,4401.54,4190.77,4586.67,4556.41,4297.95,3953.33,4233.85,4610.26,4382.56,4637.95,1693,1712,1.398,0,0,0,0,1,0,
25,4081.03,4158.97,4073.33,3858.46,4391.28,4185.64,4584.1,4551.28,4295.9,3951.79,4230.26,4610.77,4381.03,4634.87,1693,1711,1.406,0,0,0,0,1,0,
26,4089.23,4167.18,4076.41,3862.05,4402.56,4202.56,4588.21,4565.64,4316.41,3977.95,4241.03,4621.54,4397.44,4646.67,1691,1711,1.415,0,0,0,0,1,0,
27,4085.64,4163.59,4075.9,3859.49,4413.85,4204.62,4589.74,4563.08,4308.72,3960,4235.38,4614.36,4388.21,4644.62,1692,1711,1.422,0,0,0,0,1,0,
28,4078.46,4151.79,4072.82,3846.67,4408.21,4187.18,4582.56,4547.69,4286.15,3936.92,4226.67,4604.62,4376.92,4636.92,1690,1711,1.43,0,0,0,0,1,0,
29,4087.18,4157.95,4074.36,3848.72,4398.46,4186.15,4579.49,4548.72,4291.79,3939.49,4233.85,4614.87,4391.79,4646.15,1691,1709,1.437,0,0,0,0,1,0,
30,4091.28,4170.77,4076.41,3862.05,4397.44,4198.46,4582.56,4555.38,4301.03,3930.26,4237.95,4620.51,4399.49,4651.28,1690,1710,1.445,0,0,0,0,1,0,
31,4082.05,4168.21,4074.87,3865.64,4407.18,4202.56,4586.15,4551.28,4294.87,3928.72,4234.87,4612.82,4390.77,4643.08,1692,1709,1.453,0,0,0,0,1,0,
32,4083.08,4163.59,4073.85,3859.49,4415.9,4202.56,4588.21,4549.74,4295.38,3955.38,4234.36,4613.33,4387.18,4641.54,1691,1708,1.461,0,0,0,0,1,0,
33,4090.77,4169.74,4075.38,3858.97,4411.28,4196.41,4587.18,4552.82,4304.62,3964.62,4234.87,4618.97,4387.69,4644.62,1691,1710,1.469,0,0,0,0,1,0,
34,4086.67,4167.18,4074.87,3862.56,4398.46,4187.69,4584.1,4552.31,4310.77,3958.46,4235.38,4614.87,4388.21,4640,1693,1708,1.477,0,0,0,0,1,0,
35,4081.03,4154.36,4073.33,3858.97,4401.54,4185.13,4583.08,4553.85,4306.67,3954.87,4233.33,4609.74,4385.64,4631.79,1692,1709,1.484,0,0,0,0,1,0,
36,4083.08,4157.95,4074.36,3853.33,4413.85,4188.72,4585.13,4556.41,4297.95,3932.82,4231.28,4612.31,4378.46,4630.77,1693,1709,1.492,0,0,0,0,1,0,
37,4084.1,4167.18,4074.36,3854.87,4408.72,4189.23,4587.69,4556.92,4298.97,3929.74,4234.36,4616.92,4380,4636.92,1694,1709,1.5,0,0,0,0,1,0,
38,4083.08,4159.49,4074.87,3857.44,4396.41,4187.69,4586.67,4556.41,4308.72,3955.9,4236.92,4617.44,4391.79,4638.46,1695,1709,1.508,0,0,0,0,1,0,
39,4081.03,4151.79,4075.38,3852.82,4398.46,4185.64,4584.1,4555.9,4311.28,3952.82,4234.87,4615.38,4390.77,4631.28,1693,1708,1.516,0,0,0,0,1,0,
40,4076.41,4154.36,4071.79,3851.79,4401.03,4185.64,4584.1,4554.87,4304.1,3935.38,4232.82,4612.82,4375.9,4626.67,1695,1708,1.523,0,0,0,0,1,0,
41,4075.38,4151.79,4072.82,3854.36,4397.44,4188.72,4586.67,4553.85,4305.13,3936.92,4232.31,4612.31,4373.85,4630.77,1693,1708,1.531,0,0,0,0,1,0,
42,4074.36,4149.23,4072.82,3850.77,4396.92,4187.18,4584.1,4553.85,4312.82,3943.08,4233.33,4612.82,4390.26,4632.82,1694,1708,1.539,0,0,0,0,1,0,
43,4074.87,4154.87,4068.21,3847.69,4394.87,4187.18,4581.54,4551.28,4313.85,3953.85,4234.87,4611.79,4396.41,4631.79,1693,1708,1.547,0,0,0,0,1,0,
44,4076.92,4155.9,4069.23,3854.36,4397.44,4197.95,4585.64,4549.74,4307.18,3958.46,4230.77,4613.33,4381.54,4630.26,1692,1711,1.555,0,0,0,0,1,0,
45,4075.9,4153.33,4071.28,3856.41,4406.15,4199.49,4585.64,4551.28,4303.08,3945.64,4230.77,4616.41,4370.26,4628.21,1693,1709,1.563,0,0,0,0,1,0,
46,4078.46,4155.38,4068.72,3853.33,4407.18,4185.13,4582.56,4552.82,4307.69,3945.13,4243.59,4616.41,4383.59,4632.31,1692,1711,1.57,0,0,0,0,1,0,
47,4089.23,4163.59,4076.92,3859.49,4401.03,4183.59,4584.62,4554.87,4316.92,3947.18,4250.77,4618.46,4403.59,4640.51,1692,1710,1.578,0,0,0,0,1,0,
48,4095.9,4170.77,4089.74,3867.18,4405.64,4201.54,4588.21,4563.59,4327.18,3942.05,4245.13,4626.67,4404.62,4647.69,1692,1708,1.586,0,0,0,0,1,0,
49,4092.82,4171.79,4087.18,3863.08,4412.31,4206.67,4591.79,4574.87,4327.18,3956.92,4249.74,4628.72,4394.36,4648.72,1693,1710,1.594,0,0,0,0,1,0,
50,4085.13,4167.18,4077.44,3860.51,4407.69,4196.41,4591.79,4569.23,4315.9,3965.13,4254.36,4620.51,4389.74,4641.54,1694,1710,1.602,0,0,0,0,1,0,
51,4075.9,4160,4074.87,3862.56,4405.13,4196.41,4590.26,4557.95,4312.31,3943.08,4240.51,4613.85,4389.23,4632.31,1694,1711,1.609,0,0,0,0,1,0,
52,4074.87,4156.41,4075.38,3855.9,4408.21,4203.08,4593.85,4562.05,4321.03,3936.92,4230.77,4614.36,4389.23,4630.77,1694,1711,1.617,0,0,0,0,1,0,
53,4080,4156.92,4075.9,3849.74,4407.18,4203.08,4594.36,4564.62,4321.03,3955.38,4236.92,4615.38,4389.23,4634.36,1694,1712,1.625,0,0,0,0,1,0,
54,4078.46,4156.92,4074.87,3855.9,4401.54,4202.56,4588.72,4556.41,4310.26,3958.97,4237.44,4614.36,4384.1,4633.85,1694,1710,1.633,0,0,0,0,1,0,
55,4075.9,4153.85,4075.38,3862.56,4398.46,4196.92,4584.1,4551.28,4308.21,3949.74,4230.77,4613.33,4383.08,4632.82,1693,1712,1.641,0,0,0,0,1,0,
56,4083.59,4157.44,4082.56,3863.08,4395.9,4188.21,4584.62,4555.38,4310.26,3943.08,4236.41,4618.46,4392.31,4635.9,1694,1710,1.649,0,0,0,0,1,0,
57,4092.31,4167.18,4091.79,3862.05,4399.49,4192.31,4591.28,4563.08,4313.33,3941.54,4251.28,4631.28,4393.85,4645.13,1693,1711,1.656,0,0,0,0,1,0,
58,4092.31,4168.72,4093.33,3861.03,4410.77,4202.05,4597.95,4568.72,4319.49,3946.67,4249.74,4631.28,4387.69,4650.26,1693,1711,1.665,0,0,0,0,1,0,
59,4085.64,4158.97,4087.69,3862.05,4414.87,4202.56,4593.85,4570.77,4317.44,3948.21,4237.44,4617.44,4389.23,4640.51,1691,1711,1.672,0,0,0,0,1,0,
60,4078.46,4153.85,4081.54,3863.08,4411.79,4197.95,4586.15,4570.26,4311.79,3943.59,4233.33,4615.38,4389.74,4633.85,1692,1711,1.68,0,0,0,0,1,0,
61,4075.38,4157.44,4076.92,3862.05,4411.28,4197.95,4587.69,4565.13,4313.33,3940.51,4231.28,4615.38,4384.1,4635.9,1692,1711,1.688,0,0,0,0,1,0,
62,4074.87,4161.03,4073.33,3862.05,4412.82,4198.97,4588.21,4555.38,4307.69,3947.69,4227.18,4605.13,4385.13,4632.82,1692,1711,1.696,0,0,0,0,1,0,
63,4076.41,4157.95,4075.9,3862.56,4408.21,4199.49,4585.13,4551.79,4294.87,3943.59,4228.72,4605.64,4387.18,4631.79,1692,1710,1.704,0,0,0,0,1,0,
64,4082.56,4158.46,4086.15,3861.54,4401.03,4199.49,4587.69,4554.87,4297.95,3923.08,4234.87,4618.97,4387.69,4641.03,1692,1711,1.711,0,0,0,0,1,0,
65,4087.18,4167.18,4090.77,3862.05,4404.62,4201.54,4590.77,4564.62,4317.44,3935.9,4241.54,4620.51,4395.9,4646.15,1692,1710,1.719,0,0,0,0,1,0,
66,4087.69,4169.23,4085.64,3864.62,4414.87,4203.08,4588.72,4570.77,4330.26,3972.31,4248.72,4617.95,4399.49,4645.64,1692,1711,1.727,0,0,0,0,1,0,
67,4088.21,4161.03,4084.1,3864.1,4416.41,4201.54,4587.18,4562.05,4324.1,3973.85,4249.74,4620.51,4390.77,4645.64,1693,1709,1.735,0,0,0,0,1,0,
68,4086.15,4162.56,4085.13,3861.54,4410.77,4201.03,4587.69,4552.82,4312.31,3950.26,4243.59,4617.95,4385.13,4642.56,1692,1710,1.742,0,0,0,0,1,0,
69,4084.1,4169.74,4080.51,3862.05,4412.31,4200.51,4588.72,4553.85,4308.72,3937.44,4234.87,4615.38,4386.67,4639.49,1693,1711,1.75,0,0,0,0,1,0,
70,4081.54,4162.05,4076.92,3862.56,4411.28,4198.46,4592.31,4555.38,4306.67,3927.69,4229.74,4615.38,4382.05,4635.9,1693,1710,1.758,0,0,0,0,1,0,
71,4073.85,4153.33,4075.38,3860,4398.97,4198.46,4600,4554.36,4296.41,3927.18,4229.74,4613.85,4376.41,4630.26,1693,1711,1.766,0,0,0,0,1,0,
72,4077.44,4161.03,4076.92,3861.54,4397.95,4200.51,4602.56,4557.95,4290.77,3942.05,4230.26,4612.82,4380,4632.31,1693,1710,1.774,0,0,0,0,1,0,
73,4090.26,4169.23,4084.1,3864.1,4409.74,4203.08,4600.51,4564.62,4301.54,3945.64,4236.41,4615.38,4383.59,4640,1693,1710,1.782,0,0,0,0,1,0,
74,4091.79,4167.69,4090.26,3863.08,4412.31,4200.51,4598.97,4568.72,4312.82,3941.54,4248.21,4620.51,4384.1,4644.1,1694,1710,1.789,0,0,0,0,1,0,
75,4089.74,4168.21,4091.28,3868.72,4410.77,4197.95,4597.44,4568.72,4315.38,3949.74,4250.77,4627.69,4387.69,4646.67,1694,1711,1.797,0,0,0,0,1,0,
76,4094.36,4173.33,4088.21,3878.97,4412.82,4202.05,4598.46,4568.21,4321.03,3959.49,4247.18,4632.31,4393.33,4650.26,1694,1710,1.805,0,0,0,0,1,0,
77,4089.23,4171.28,4085.64,3875.9,4412.82,4207.18,4600.51,4570.77,4325.64,3962.05,4250.77,4627.18,4398.97,4646.67,1693,1709,1.813,0,0,0,0,1,0,
78,4082.05,4168.21,4081.54,3865.13,4414.36,4204.62,4597.44,4565.64,4316.41,3959.49,4246.15,4617.95,4395.38,4640,1692,1709,1.821,0,0,0,0,1,0,
79,4088.21,4168.72,4079.49,3864.62,4415.9,4197.95,4594.36,4559.49,4306.15,3948.21,4231.79,4615.38,4389.23,4638.46,1693,1708,1.828,0,0,0,0,1,0,
80,4091.28,4167.18,4081.54,3868.21,4410.77,4200.51,4598.46,4565.64,4310.26,3939.49,4234.36,4616.41,4390.77,4642.56,1691,1708,1.836,0,0,0,0,1,0,
81,4083.08,4166.67,4083.08,3864.1,4410.77,4203.59,4601.03,4567.69,4316.41,3947.18,4243.08,4616.41,4391.79,4644.1,1691,1709,1.845,0,0,0,0,1,0,
82,4080,4164.62,4082.56,3860.51,4415.38,4201.03,4593.85,4562.05,4316.41,3952.82,4236.41,4616.41,4383.59,4640,1691,1709,1.852,0,0,0,0,1,0,
83,4083.08,4160.51,4081.03,3864.62,4405.64,4198.97,4586.15,4561.03,4307.18,3942.05,4229.74,4616.41,4377.44,4637.95,1692,1710,1.86,0,0,0,0,1,0,
84,4082.05,4161.54,4082.56,3867.69,4393.33,4192.31,4587.69,4564.62,4302.05,3937.95,4240.51,4618.46,4382.56,4643.08,1691,1709,1.868,0,0,0,0,1,0,
85,4084.1,4166.67,4083.08,3865.13,4400.51,4183.08,4593.85,4569.74,4317.44,3953.85,4249.74,4625.64,4388.21,4650.26,1691,1711,1.875,0,0,0,0,1,0,
86,4090.77,4167.18,4083.08,3863.59,4414.87,4189.23,4593.33,4570.77,4327.69,3973.85,4251.79,4630.77,4389.74,4650.77,1693,1708,1.883,0,0,0,0,1,0,
87,4092.82,4167.18,4085.64,3864.1,4415.9,4196.92,4586.15,4560,4315.38,3971.28,4248.21,4626.67,4390.26,4648.21,1692,1710,1.891,0,0,0,0,1,0,
88,4089.23,4169.23,4090.26,3864.62,4408.72,4188.72,4583.08,4550.26,4308.21,3948.21,4238.97,4621.03,4389.74,4646.67,1693,1711,1.899,0,0,0,0,1,0,
89,4087.69,4166.15,4088.72,3867.69,4404.1,4188.21,4586.67,4552.82,4311.28,3935.9,4234.36,4619.49,4385.13,4645.13,1693,1709,1.908,0,0,0,0,1,0,
90,4090.26,4168.21,4084.1,3869.23,4404.62,4201.54,4589.74,4552.31,4303.08,3944.62,4235.38,4618.46,4381.03,4645.13,1694,1710,1.915,0,0,0,0,1,0,
91,4089.74,4169.23,4082.05,3866.15,4409.74,4203.59,4587.69,4551.79,4296.41,3945.64,4235.9,4615.38,4382.56,4646.15,1694,1710,1.922,0,0,0,0,1,0,
92,4083.59,4160,4081.03,3863.59,4412.31,4194.36,4587.18,4555.38,4301.54,3932.82,4232.82,4614.87,4382.05,4645.13,1694,1711,1.93,0,0,0,0,1,0,
93,4082.56,4160,4084.1,3863.59,4410.77,4194.36,4595.38,4556.92,4304.1,3932.82,4233.85,4621.03,4380.51,4646.15,1694,1710,1.938,0,0,0,0,1,0,
94,4091.79,4170.26,4087.18,3866.15,4413.33,4201.54,4603.08,4561.03,4306.15,3951.28,4240.51,4626.15,4384.62,4649.23,1693,1711,1.946,0,0,0,0,1,0,
95,4096.41,4173.33,4088.72,3868.21,4413.33,4202.56,4601.03,4570.26,4316.92,3967.69,4250.26,4626.67,4392.82,4650.26,1693,1709,1.954,0,0,0,0,1,0,
96,4091.79,4167.18,4087.18,3867.18,4408.21,4201.54,4593.85,4571.28,4322.56,3963.59,4251.28,4626.67,4390.77,4650.77,1692,1711,1.961,0,0,0,0,1,0,
97,4086.67,4160,4080,3863.08,4403.59,4198.46,4589.74,4561.54,4314.36,3947.18,4243.08,4623.08,4380.51,4649.23,1693,1709,1.969,0,0,0,0,1,0,
98,4083.08,4151.28,4073.33,3860,4398.46,4189.74,4587.69,4554.36,4306.15,3945.64,4241.54,4614.87,4381.03,4643.59,1691,1710,1.977,0,0,0,0,1,0,
99,4083.08,4150.77,4075.38,3860,4401.03,4183.59,4586.67,4556.41,4305.64,3953.33,4240,4613.33,4388.21,4643.59,1692,1710,1.986,0,0,0,0,1,0,
100,4081.54,4155.9,4078.46,3861.54,4407.18,4190.26,4586.15,4551.79,4301.54,3945.64,4232.82,4612.82,4383.08,4645.13,1692,1710,1.993,0,0,0,0,1,0,
101,4074.36,4155.38,4074.87,3860.51,4404.62,4196.41,4585.13,4541.03,4290.77,3934.87,4228.21,4607.69,4374.87,4640.51,1692,1711,2.001,0,0,0,0,1,0,
102,4074.87,4162.56,4074.36,3860.51,4405.13,4200.51,4586.67,4547.18,4290.77,3938.97,4230.77,4610.77,4381.54,4638.46,1693,1710,2.008,0,0,0,0,1,0,
103,4081.03,4169.74,4076.41,3863.59,4412.82,4203.08,4587.69,4554.87,4297.44,3941.54,4233.33,4614.87,4386.15,4642.56,1693,1710,2.016,0,0,0,0,1,0,
104,4077.95,4159.49,4076.92,3862.56,4412.31,4192.31,4584.62,4542.05,4295.9,3935.9,4233.85,4612.82,4373.85,4642.05,1693,1710,2.025,0,0,0,0,1,0,
105,4072.82,4153.33,4077.95,3860,4407.69,4187.69,4584.62,4537.44,4291.79,3936.41,4233.33,4612.31,4372.82,4638.46,1693,1711,2.032,0,0,0,0,1,0,
106,4077.95,4161.03,4077.44,3862.05,4410.77,4201.03,4590.26,4552.82,4298.46,3950.26,4230.77,4616.41,4383.08,4640.51,1694,1709,2.04,0,0,0,0,1,0,
107,4080,4160,4077.95,3860,4410.77,4204.62,4592.31,4561.03,4309.23,3961.03,4232.82,4616.92,4379.49,4641.54,1693,1710,2.048,0,0,0,0,1,0,
108,4071.28,4150.77,4075.38,3850.26,4400.51,4194.36,4588.21,4556.41,4312.82,3949.74,4232.31,4608.72,4372.82,4635.38,1693,1710,2.055,0,0,0,0,1,0,
109,4064.1,4148.72,4070.77,3846.67,4393.85,4196.41,4586.15,4554.87,4308.72,3942.05,4227.69,4600,4377.44,4628.72,1692,1709,2.063,0,0,0,0,1,0,
110,4069.23,4151.28,4072.31,3855.9,4403.59,4196.41,4588.72,4556.92,4303.59,3955.38,4226.67,4603.59,4385.64,4632.82,1692,1710,2.071,0,0,0,0,1,0,
111,4078.46,4159.49,4076.92,3864.62,4411.79,4182.56,4582.05,4555.38,4306.15,3961.03,4228.72,4613.85,4390.77,4642.56,1692,1709,2.079,0,0,0,0,1,0,
112,4085.64,4168.21,4080.51,3866.15,4406.15,4184.1,4573.33,4553.85,4313.85,3951.28,4240.51,4617.44,4397.44,4648.72,1692,1711,2.087,0,0,0,0,1,0,
113,4087.69,4169.74,4083.08,3865.13,4407.18,4196.41,4577.44,4553.85,4307.69,3944.62,4251.28,4617.95,4396.92,4649.23,1691,1709,2.094,0,0,0,0,1,0,
114,4085.64,4167.69,4081.54,3864.1,4406.15,4192.31,4577.44,4551.79,4291.28,3939.49,4240.51,4617.95,4387.69,4647.18,1691,1710,2.102,0,0,0,0,1,0,
115,4085.13,4167.69,4080,3864.1,4394.36,4184.1,4570.77,4550.26,4292.31,3937.44,4233.33,4616.41,4378.97,4646.15,1693,1708,2.11,0,0,0,0,1,0,
116,4089.74,4168.21,4085.64,3865.13,4398.46,4186.15,4576.41,4553.33,4304.62,3952.31,4245.64,4616.92,4384.1,4648.72,1693,1709,2.118,0,0,0,0,1,0,
117,4090.77,4169.74,4088.72,3866.15,4415.9,4188.72,4586.67,4557.44,4310.26,3970.26,4251.28,4617.95,4398.46,4650.26,1694,1710,2.126,0,0,0,0,1,0,
118,4088.21,4172.31,4085.64,3865.13,4416.41,4193.33,4585.13,4556.92,4305.64,3969.23,4246.67,4618.97,4396.41,4650.26,1694,1711,2.134,0,0,0,0,1,0,
119,4087.69,4170.77,4086.67,3866.15,4409.74,4199.49,4584.1,4555.38,4297.95,3953.33,4247.18,4621.54,4385.64,4649.23,1694,1710,2.141,0,0,0,0,1,0,
120,4089.74,4168.21,4090.26,3866.15,4411.28,4192.31,4585.64,4554.36,4301.03,3949.74,4249.23,4624.1,4389.74,4649.74,1693,1710,2.15,0,0,0,0,1,0,
121,4088.21,4168.21,4089.23,3866.15,4408.72,4184.1,4583.08,4554.36,4307.69,3959.49,4249.23,4621.54,4390.77,4651.28,1693,1712,2.157,0,0,0,0,1,0,
122,4086.15,4166.67,4085.13,3865.13,4398.46,4189.74,4580.51,4554.36,4302.56,3948.72,4241.54,4617.44,4373.33,4646.15,1693,1710,2.165,0,0,0,0,1,0,
123,4086.67,4166.15,4081.03,3862.56,4395.9,4191.28,4578.46,4551.28,4291.79,3921.03,4225.64,4613.85,4369.74,4641.03,1691,1712,2.173,0,0,0,0,1,0,
124,4090.26,4168.72,4084.62,3869.23,4409.23,4186.15,4578.46,4550.77,4298.46,3931.28,4231.79,4614.87,4386.15,4646.15,1691,1711,2.18,0,0,0,0,1,0,
125,4093.33,4171.28,4090.77,3874.87,4417.95,4186.67,4581.03,4552.82,4313.33,3964.62,4250.26,4617.44,4388.72,4651.28,1690,1713,2.188,0,0,0,0,1,0,
126,4095.9,4171.79,4088.21,3873.33,4412.31,4192.82,4581.54,4553.85,4313.33,3959.49,4248.21,4617.95,4383.08,4648.21,1691,1714,2.196,0,0,0,0,1,0,
127,4096.41,4172.82,4085.64,3874.36,4409.74,4197.95,4581.54,4553.33,4304.62,3936.92,4241.03,4615.9,4389.23,4645.13,1690,1713,2.205,0,0,0,0,1,0,
128,4093.85,4171.79,4088.72,3873.33,4413.85,4204.1,4585.13,4554.36,4301.54,3940.51,4243.59,4614.87,4387.69,4646.67,1690,1713,2.212,0,0,0,0,1,0,
0,4092.82,4169.23,4089.74,3865.13,4416.41,4204.1,4584.62,4555.9,4304.62,3946.67,4247.69,4618.97,4380.51,4647.69,1690,1712,2.22,0,0,0,0,1,0,
1,4092.82,4169.23,4088.21,3861.54,4415.9,4189.23,4581.54,4554.36,4305.64,3938.97,4247.69,4621.03,4383.08,4647.18,1691,1711,2.227,0,0,0,0,1,0,
2,4089.23,4168.72,4088.21,3864.62,4409.74,4183.08,4582.05,4551.79,4307.69,3935.9,4240.51,4620,4378.97,4646.67,1690,1711,2.235,0,0,0,0,1,0,
3,4090.26,4166.67,4089.74,3865.13,4408.72,4197.95,4585.13,4553.85,4311.28,3944.1,4234.36,4619.49,4378.97,4648.72,1693,1711,2.243,0,0,0,0,1,0,
4,4093.33,4167.18,4088.21,3865.13,4419.49,4206.15,4586.67,4555.9,4311.28,3951.79,4237.44,4617.95,4382.56,4649.74,1692,1712,2.251,0,0,0,0,1,0,
5,4090.77,4170.77,4083.08,3869.74,4419.49,4197.95,4586.67,4555.9,4312.31,3948.21,4243.08,4619.49,4377.95,4646.67,1693,1711,2.259,0,0,0,0,1,0,
6,4088.72,4170.77,4081.03,3875.38,4407.18,4195.9,4587.18,4556.92,4313.33,3942.05,4249.74,4624.62,4382.05,4645.64,1693,1710,2.267,0,0,0,0,1,0,
7,4088.21,4168.21,4082.56,3876.92,4410.77,4202.05,4587.18,4557.95,4309.23,3947.18,4250.77,4623.59,4391.28,4641.54,1693,1710,2.274,0,0,0,0,1,0,
8,4083.59,4168.21,4076.41,3873.85,4428.21,4201.03,4590.77,4556.92,4304.1,3942.05,4236.41,4614.87,4383.59,4629.74,1692,1709,2.282,0,0,0,0,1,0,
9,4083.08,4172.31,4074.36,3875.9,4427.69,4198.46,4593.85,4556.92,4306.67,3934.36,4228.72,4611.28,4373.85,4628.21,1694,1707,2.29,0,0,0,0,1,0,
10,4091.79,4171.79,4084.62,3877.44,4411.28,4199.49,4590.77,4558.46,4313.85,3955.38,4247.18,4621.03,4384.62,4640.51,1693,1708,2.298,0,0,0,0,1,0,
11,4095.38,4168.72,4088.21,3876.41,4412.82,4201.54,4587.69,4557.44,4314.36,3962.05,4254.87,4629.23,4392.82,4644.1,1693,1708,2.306,0,0,0,0,1,0,
12,4091.28,4175.38,4082.05,3878.46,4427.18,4198.46,4586.67,4553.85,4305.13,3927.69,4237.44,4623.08,4387.69,4635.38,1692,1707,2.314,0,0,0,0,1,0,
13,4090.77,4185.13,4081.54,3878.97,4424.62,4196.92,4584.1,4551.79,4306.15,3925.13,4234.87,4618.46,4389.74,4635.9,1692,1709,2.321,0,0,0,0,1,0,
14,4094.36,4184.1,4086.15,3879.49,4412.82,4199.49,4583.08,4554.36,4317.95,3961.03,4249.23,4626.15,4398.46,4645.64,1693,1709,2.33,0,0,0,0,1,0,
15,4096.92,4182.56,4089.74,3881.54,4416.41,4197.95,4587.69,4557.95,4318.46,3968.21,4253.85,4633.33,4395.38,4652.31,1692,1711,2.337,0,0,0,0,1,0,
16,4095.38,4183.59,4092.31,3881.03,4424.1,4197.95,4587.18,4556.92,4310.77,3949.23,4250.26,4630.26,4388.21,4650.26,1692,1712,2.345,0,0,0,0,1,0,
17,4093.85,4174.36,4088.21,3875.9,4415.9,4197.44,4583.59,4553.85,4308.21,3947.18,4242.56,4625.64,4392.31,4645.13,1691,1711,2.353,0,0,0,0,1,0,
18,4093.85,4168.21,4082.56,3874.36,4404.1,4197.95,4583.08,4552.82,4307.69,3946.15,4238.97,4625.13,4393.33,4642.05,1691,1710,2.36,0,0,0,0,1,0,
19,4092.31,4176.92,4083.59,3878.97,4408.21,4198.46,4585.64,4553.85,4309.23,3930.77,4245.13,4626.15,4387.69,4643.08,1691,1710,2.368,0,0,0,0,1,0,
20,4092.82,4177.95,4083.08,3879.49,4414.87,4192.31,4587.69,4555.38,4316.41,3928.72,4249.23,4622.56,4384.62,4640.51,1693,1710,2.376,0,0,0,0,1,0,
21,4089.74,4168.21,4077.44,3868.21,4413.33,4191.28,4587.69,4557.44,4323.59,3951.28,4243.08,4615.9,4387.18,4633.85,1693,1710,2.384,0,0,0,0,1,0,
22,4082.56,4165.64,4073.85,3858.97,4414.36,4194.87,4587.18,4557.95,4323.08,3961.03,4243.08,4613.85,4389.74,4631.79,1693,1711,2.392,0,0,0,0,1,0,
23,4081.54,4169.74,4073.85,3866.15,4415.38,4193.85,4586.15,4553.85,4312.82,3941.54,4248.21,4613.33,4388.21,4633.85,1693,1709,2.4,0,0,0,0,1,0,
24,4088.72,4170.77,4075.38,3877.95,4408.72,4194.36,4585.64,4552.82,4311.28,3936.41,4247.18,4613.33,4383.08,4634.36,1692,1710,2.408,0,0,0,0,1,0,
25,4092.31,4172.82,4081.54,3879.49,4410.77,4202.56,4588.21,4560,4325.13,3954.87,4247.69,4618.46,4385.13,4637.44,1694,1709,2.415,0,0,0,0,1,0,
26,4089.74,4173.85,4084.62,3877.44,4420,4202.56,4591.28,4561.54,4328.21,3961.54,4248.72,4622.56,4392.31,4641.03,1694,1710,2.424,0,0,0,0,1,0,
27,4089.23,4170.77,4078.46,3877.95,4416.92,4199.49,4592.31,4555.38,4321.54,3958.97,4244.62,4617.95,4396.41,4636.92,1695,1711,2.431,0,0,0,0,1,0,
28,4090.77,4169.74,4073.85,3877.95,4411.28,4203.08,4591.28,4553.85,4319.49,3949.23,4244.1,4614.87,4391.79,4634.36,1695,1710,2.439,0,0,0,0,1,0,
29,4092.31,4170.26,4078.46,3876.92,4411.79,4203.08,4588.72,4557.44,4318.97,3939.49,4247.18,4618.46,4385.64,4640,1695,1711,2.446,0,0,0,0,1,0,
30,4092.31,4170.77,4083.08,3876.92,4416.92,4197.95,4587.18,4557.44,4320,3950.77,4245.64,4621.03,4392.31,4641.03,1694,1711,2.454,0,0,0,0,1,0,
31,4091.79,4171.79,4081.54,3876.41,4420,4193.33,4587.69,4554.87,4320.51,3961.03,4247.18,4619.49,4398.97,4642.56,1695,1711,2.462,0,0,0,0,1,0,
32,4091.79,4169.74,4080,3876.41,4416.41,4186.67,4585.64,4554.87,4318.97,3947.18,4251.79,4620,4391.79,4647.18,1694,1709,2.47,0,0,0,0,1,0,
33,4090.77,4171.79,4080.51,3878.97,4411.79,4181.03,4582.05,4554.36,4320,3937.44,4246.15,4619.49,4388.72,4640.51,1694,1709,2.478,0,0,0,0,1,0,
34,4092.31,4180.51,4080,3881.54,4411.79,4190.77,4585.13,4553.85,4319.49,3946.15,4242.05,4617.44,4388.21,4635.38,1695,1708,2.486,0,0,0,0,1,0,
35,4091.79,4183.59,4077.44,3881.03,4412.82,4202.56,4589.23,4552.31,4311.28,3942.05,4245.13,4615.38,4382.05,4641.54,1693,1710,2.493,0,0,0,0,1,0,
36,4086.15,4180.51,4076.41,3879.49,4414.87,4192.82,4585.13,4550.26,4307.69,3926.15,4234.36,4610.77,4378.97,4638.46,1694,1709,2.501,0,0,0,0,1,0,
37,4084.62,4182.05,4077.44,3880.51,4419.49,4187.69,4582.05,4550.26,4311.28,3929.23,4224.62,4611.79,4382.56,4632.31,1693,1709,2.51,0,0,0,0,1,0,
38,4089.23,4178.46,4076.92,3878.46,4416.92,4200.51,4586.15,4552.82,4311.79,3944.62,4238.46,4616.92,4381.54,4637.95,1693,1710,2.517,0,0,0,0,1,0,
39,4090.26,4169.23,4078.97,3875.9,4409.23,4201.54,4589.23,4555.9,4310.26,3945.13,4248.21,4618.46,4383.08,4643.59,1692,1709,2.525,0,0,0,0,1,0,
40,4090.26,4168.21,4081.54,3876.92,4407.18,4195.9,4588.21,4556.92,4314.87,3939.49,4242.56,4621.54,4392.82,4644.62,1692,1710,2.533,0,0,0,0,1,0,
41,4093.33,4175.9,4083.08,3878.46,4411.79,4203.08,4588.72,4559.49,4323.59,3950.26,4246.67,4626.67,4401.03,4648.72,1692,1708,2.54,0,0,0,0,1,0,
42,4093.85,4179.49,4083.59,3878.46,4414.36,4196.41,4588.72,4559.49,4323.59,3956.41,4255.38,4623.59,4400.51,4648.72,1692,1709,2.549,0,0,0,0,1,0,
43,4089.74,4174.87,4082.05,3877.44,4413.33,4180,4587.69,4555.38,4315.9,3943.08,4248.72,4615.38,4392.31,4641.54,1692,1708,2.556,0,0,0,0,1,0,
44,4088.21,4171.28,4079.49,3876.41,4412.82,4189.74,4586.67,4555.38,4310.77,3936.41,4241.03,4614.87,4382.05,4640,1692,1709,2.564,0,0,0,0,1,0,
45,4090.77,4170.77,4081.54,3876.92,4410.26,4200,4586.67,4554.87,4307.69,3935.38,4247.18,4617.44,4376.41,4645.64,1692,1708,2.572,0,0,0,0,1,0,
46,4092.82,4175.38,4087.18,3877.95,4408.72,4188.21,4586.15,4551.28,4307.18,3932.31,4251.28,4617.44,4383.08,4647.18,1691,1710,2.579,0,0,0,0,1,0,
47,4094.36,4184.1,4089.23,3877.95,4414.36,4182.56,4584.62,4554.36,4312.31,3938.46,4247.18,4615.9,4396.41,4647.18,1692,1709,2.587,0,0,0,0,1,0,
48,4095.9,4183.59,4088.72,3878.97,4412.82,4187.69,4581.03,4552.31,4309.23,3948.21,4245.64,4614.36,4396.41,4649.74,1691,1709,2.595,0,0,0,0,1,0,
49,4094.36,4172.82,4085.13,3878.46,4402.05,4185.64,4578.46,4540,4296.41,3940.51,4243.59,4616.41,4383.08,4645.13,1692,1711,2.603,0,0,0,0,1,0,
50,4090.77,4171.79,4081.03,3875.38,4405.13,4191.79,4583.08,4537.44,4292.82,3928.72,4242.05,4618.46,4383.59,4640.51,1692,1709,2.611,0,0,0,0,1,0,
51,4091.28,4174.36,4084.62,3874.36,4415.9,4202.56,4587.18,4541.54,4296.41,3925.13,4247.69,4618.46,4394.87,4647.18,1691,1711,2.619,0,0,0,0,1,0,
52,4093.85,4168.72,4089.74,3874.87,4406.67,4191.28,4584.62,4542.05,4294.87,3925.13,4252.31,4619.49,4396.41,4651.28,1692,1709,2.626,0,0,0,0,1,0,
53,4095.9,4172.31,4089.74,3875.9,4397.44,4182.56,4584.1,4548.72,4297.44,3935.9,4249.23,4625.64,4398.46,4652.82,1691,1709,2.634,0,0,0,0,1,0,
54,4095.9,4182.05,4089.23,3877.95,4408.72,4197.44,4588.21,4555.9,4303.59,3945.13,4249.74,4626.67,4397.95,4656.41,1692,1709,2.642,0,0,0,0,1,0,
55,4093.33,4182.56,4089.23,3878.46,4413.33,4200.51,4588.72,4552.82,4304.1,3941.03,4250.26,4621.54,4385.13,4650.26,1691,1710,2.65,0,0,0,0,1,0,
56,4095.38,4181.03,4089.74,3879.49,4406.67,4185.64,4587.69,4552.31,4304.62,3940.51,4247.18,4622.56,4387.18,4647.69,1692,1710,2.658,0,0,0,0,1,0,
57,4100.51,4183.08,4091.28,3878.97,4410.26,4187.69,4588.72,4555.9,4309.74,3945.64,4249.23,4626.15,4402.05,4656.41,1692,1710,2.666,0,0,0,0,1,0,
58,4097.44,4179.49,4089.74,3876.92,4415.38,4196.41,4587.69,4553.85,4310.26,3933.85,4250.77,4621.03,4395.38,4655.38,1692,1710,2.673,0,0,0,0,1,0,
59,4092.31,4178.46,4084.1,3878.46,4410.26,4192.31,4585.64,4552.82,4309.23,3921.54,4243.59,4616.92,4384.62,4646.15,1693,1711,2.681,0,0,0,0,1,0,
60,4091.79,4180,4081.03,3875.9,4411.28,4194.36,4586.15,4555.9,4312.82,3932.31,4244.1,4616.92,4393.33,4647.18,1692,1711,2.69,0,0,0,0,1,0,
61,4090.26,4174.36,4082.05,3871.28,4415.38,4200.51,4586.15,4555.9,4313.85,3943.59,4249.74,4616.41,4399.49,4651.28,1693,1712,2.697,0,0,0,0,1,0,
62,4093.33,4172.31,4085.13,3875.38,4405.64,4190.77,4585.13,4556.92,4308.72,3943.08,4249.74,4620,4394.87,4653.33,1694,1711,2.705,0,0,0,0,1,0,
63,4103.08,4183.08,4092.82,3880.51,4402.56,4181.54,4584.62,4560,4309.74,3944.62,4255.38,4631.79,4397.95,4658.97,1693,1713,2.712,0,0,0,0,1,0,
64,4105.13,4186.15,4094.36,3879.49,4411.79,4185.64,4585.13,4558.97,4314.36,3946.67,4261.03,4636.41,4401.54,4661.54,1694,1711,2.72,0,0,0,0,1,0,
65,4095.9,4172.31,4085.13,3873.33,4408.21,4188.21,4585.13,4552.82,4304.62,3935.9,4250.26,4625.64,4392.82,4653.85,1693,1713,2.728,0,0,0,0,1,0,
66,4093.85,4166.67,4084.62,3869.74,4400.51,4187.69,4584.62,4551.28,4292.31,3930.26,4243.08,4617.95,4390.77,4650.26,1694,1712,2.736,0,0,0,0,1,0,
67,4097.95,4172.31,4091.28,3873.85,4408.21,4187.18,4583.08,4551.28,4302.56,3940.51,4253.33,4626.67,4397.95,4656.41,1693,1712,2.744,0,0,0,0,1,0,
68,4098.46,4175.38,4091.79,3880.51,4408.72,4186.15,4582.05,4549.74,4313.85,3946.15,4253.33,4630.26,4399.49,4658.97,1694,1712,2.752,0,0,0,0,1,0,
69,4099.49,4174.87,4089.74,3876.92,4398.46,4186.15,4583.08,4551.28,4306.67,3933.33,4244.62,4622.05,4396.41,4654.87,1695,1711,2.759,0,0,0,0,1,0,
70,4101.54,4180,4091.79,3872.31,4406.15,4184.1,4583.59,4551.79,4297.95,3924.62,4248.21,4617.95,4396.41,4653.33,1693,1713,2.767,0,0,0,0,1,0,
71,4103.59,4185.64,4092.82,3878.46,4418.46,4187.69,4582.56,4548.72,4296.92,3933.85,4250.77,4621.03,4395.9,4655.38,1694,1712,2.775,0,0,0,0,1,0,
72,4102.05,4183.08,4089.23,3882.05,4414.36,4199.49,4583.59,4549.74,4294.36,3940,4243.08,4617.95,4394.36,4655.9,1693,1712,2.783,0,0,0,0,1,0,
73,4094.87,4183.08,4087.69,3878.46,4409.74,4205.13,4585.64,4554.36,4297.44,3939.49,4242.05,4614.87,4391.79,4654.87,1693,1711,2.791,0,0,0,0,1,0,
74,4090.77,4182.56,4086.15,3875.9,4415.9,4201.54,4588.21,4555.9,4309.74,3940,4248.21,4617.95,4387.18,4651.28,1692,1712,2.798,0,0,0,0,1,0,
75,4090.77,4173.33,4080.51,3876.92,4413.33,4201.54,4592.31,4554.87,4313.85,3938.46,4250.77,4618.46,4388.21,4647.18,1694,1709,2.806,0,0,0,0,1,0,
76,4088.21,4165.64,4074.87,3874.87,4402.56,4207.18,4594.87,4552.82,4304.1,3934.36,4249.74,4615.9,4387.18,4645.64,1692,1710,2.815,0,0,0,0,1,0,
77,4087.69,4168.72,4079.49,3874.36,4404.1,4204.1,4590.77,4551.79,4302.05,3940,4246.15,4615.38,4385.13,4647.18,1693,1710,2.822,0,0,0,0,1,0,
78,4091.79,4172.82,4085.64,3878.46,4411.28,4198.46,4585.64,4552.31,4310.26,3946.15,4245.13,4615.38,4387.18,4648.72,1691,1710,2.831,0,0,0,0,1,0,
79,4090.77,4168.21,4082.05,3870.26,4408.72,4195.9,4585.64,4543.59,4302.56,3930.77,4246.15,4613.33,4384.1,4646.15,1691,1710,2.838,0,0,0,0,1,0,
80,4089.74,4167.69,4080.51,3863.59,4401.03,4189.74,4586.67,4538.46,4289.23,3924.62,4248.21,4613.33,4386.15,4648.21,1692,1709,2.845,0,0,0,0,1,0,
81,4093.85,4172.31,4084.62,3872.82,4401.54,4188.72,4585.13,4551.28,4299.49,3944.62,4252.82,4616.41,4397.95,4658.46,1692,1709,2.853,0,0,0,0,1,0,
82,4095.9,4170.26,4087.69,3878.97,4408.72,4197.95,4585.13,4560.51,4310.77,3952.82,4254.36,4618.46,4403.59,4660.51,1692,1707,2.861,0,0,0,0,1,0,
83,4097.44,4170.77,4088.72,3875.9,4411.28,4205.13,4586.67,4554.36,4303.59,3942.56,4249.74,4616.92,4392.82,4648.21,1692,1708,2.869,0,0,0,0,1,0,
84,4098.97,4179.49,4089.23,3875.9,4408.72,4202.05,4588.72,4553.33,4305.64,3939.49,4248.72,4615.9,4381.54,4645.64,1693,1709,2.877,0,0,0,0,1,0,
85,4098.46,4184.62,4089.74,3877.95,4411.28,4200,4590.26,4558.46,4309.23,3934.87,4251.28,4616.92,4385.64,4654.87,1692,1710,2.885,0,0,0,0,1,0,
86,4095.9,4182.56,4088.72,3877.95,4416.92,4201.03,4589.74,4551.79,4294.36,3922.56,4247.69,4616.41,4394.87,4654.36,1694,1710,2.892,0,0,0,0,1,0,
87,4092.82,4184.1,4084.62,3880,4415.38,4200.51,4588.21,4545.13,4292.31,3929.74,4244.1,4614.36,4398.46,4645.64,1692,1710,2.9,0,0,0,0,1,0,
88,4091.79,4182.05,4080.51,3879.49,4408.21,4198.97,4587.69,4552.31,4309.74,3947.18,4245.13,4614.87,4396.92,4646.67,1694,1711,2.908,0,0,0,0,1,0,
89,4091.79,4171.28,4080,3875.9,4402.56,4196.92,4586.67,4551.79,4306.15,3941.03,4245.64,4614.87,4393.33,4650.77,1693,1711,2.916,0,0,0,0,1,0,
90,4089.74,4167.69,4080,3875.38,4403.59,4198.97,4585.64,4543.08,4291.28,3925.64,4244.62,4613.33,4388.72,4646.67,1693,1713,2.924,0,0,0,0,1,0,
91,4094.87,4177.95,4082.05,3875.38,4407.69,4202.05,4590.77,4549.23,4302.05,3931.28,4248.21,4616.41,4391.79,4648.21,1693,1713,2.931,0,0,0,0,1,0,
92,4103.08,4182.56,4083.59,3877.44,4405.13,4200.51,4593.85,4557.44,4312.31,3944.62,4250.77,4617.44,4398.97,4655.9,1693,1713,2.94,0,0,0,0,1,0,
93,4102.56,4174.36,4083.08,3880,4405.13,4199.49,4588.72,4552.82,4304.1,3941.03,4250.77,4615.9,4401.03,4656.41,1693,1712,2.947,0,0,0,0,1,0,
94,4097.44,4169.23,4084.62,3871.79,4414.36,4200.51,4584.1,4553.33,4303.59,3940.51,4254.36,4620,4395.38,4656.41,1692,1713,2.955,0,0,0,0,1,0,
95,4094.36,4169.23,4083.59,3865.64,4412.82,4200,4584.62,4557.44,4309.23,3943.08,4245.13,4621.03,4385.13,4655.38,1693,1712,2.963,0,0,0,0,1,0,
96,4091.79,4169.74,4082.05,3875.38,4403.08,4197.44,4584.62,4553.85,4305.64,3930.77,4234.87,4615.38,4387.69,4649.74,1693,1712,2.974,0,0,0,0,1,0,
97,4091.28,4171.28,4083.59,3882.05,4406.67,4203.08,4584.62,4554.36,4308.21,3933.85,4241.54,4614.36,4398.97,4647.18,1694,1711,2.978,0,0,0,0,1,0,
98,4089.74,4172.31,4079.49,3875.9,4415.38,4201.03,4586.15,4556.92,4312.31,3943.08,4241.54,4612.82,4391.28,4646.15,1694,1711,2.986,0,0,0,0,1,0,
99,4085.64,4170.26,4076.41,3874.36,4412.82,4186.15,4588.21,4553.33,4303.08,3918.97,4234.36,4609.23,4381.54,4644.62,1695,1710,2.995,0,0,0,0,1,0,
100,4087.69,4171.28,4084.1,3876.41,4408.72,4186.67,4589.74,4545.13,4296.41,3905.13,4244.1,4613.85,4390.26,4646.15,1694,1710,3.002,0,0,0,0,1,0,
101,4092.31,4172.31,4087.18,3875.9,4410.26,4197.95,4589.23,4542.05,4304.1,3936.41,4252.31,4618.46,4396.92,4644.1,1695,1711,3.01,0,0,0,0,1,0,
102,4089.23,4170.26,4077.95,3876.92,4412.31,4197.95,4589.23,4547.69,4311.79,3953.85,4243.59,4613.33,4392.31,4638.46,1695,1709,3.017,0,0,0,0,1,0,
103,4087.18,4169.23,4073.85,3877.44,4411.79,4195.38,4589.74,4552.31,4309.74,3932.31,4243.08,4609.74,4384.62,4638.97,1694,1710,3.025,0,0,0,0,1,0,
104,4090.77,4172.31,4080,3876.41,4412.82,4199.49,4589.23,4552.31,4307.18,3931.28,4248.72,4615.9,4386.15,4641.54,1695,1708,3.033,0,0,0,0,1,0,
105,4090.26,4173.33,4082.05,3877.44,4414.87,4199.49,4588.72,4554.36,4309.23,3943.59,4247.18,4619.49,4396.92,4640.51,1694,1710,3.041,0,0,0,0,1,0,
106,4082.56,4167.69,4076.41,3876.41,4411.79,4193.85,4588.21,4553.85,4309.74,3932.31,4243.59,4608.72,4396.41,4634.36,1694,1710,3.049,0,0,0,0,1,0,
107,4081.54,4166.15,4075.9,3874.87,4408.72,4192.82,4588.21,4549.74,4309.74,3918.46,4244.1,4602.05,4385.13,4631.28,1693,1710,3.057,0,0,0,0,1,0,
108,4087.69,4170.77,4082.05,3875.9,4411.28,4195.9,4591.28,4553.33,4312.31,3923.08,4250.26,4611.79,4386.15,4637.95,1693,1710,3.064,0,0,0,0,1,0,
109,4089.23,4171.28,4084.62,3875.9,4414.87,4200,4593.85,4553.33,4311.79,3925.64,4249.23,4616.92,4391.28,4641.54,1693,1709,3.072,0,0,0,0,1,0,
110,4088.72,4168.72,4081.54,3875.9,4414.87,4200,4591.79,4541.03,4310.26,3929.23,4243.59,4613.33,4390.77,4638.97,1693,1709,3.08,0,0,0,0,1,0,
111,4092.31,4173.85,4081.54,3880,4413.85,4198.46,4588.21,4537.44,4313.33,3942.56,4252.31,4615.9,4396.41,4643.08,1693,1709,3.088,0,0,0,0,1,0,
112,4092.82,4183.08,4084.62,3883.08,4413.85,4201.03,4588.21,4543.08,4315.9,3942.56,4263.59,4622.05,4396.41,4648.21,1693,1710,3.096,0,0,0,0,1,0,
113,4089.74,4181.54,4084.1,3881.54,4411.79,4198.97,4588.21,4539.49,4312.31,3929.74,4255.38,4620.51,4385.13,4645.13,1692,1710,3.104,0,0,0,0,1,0,
114,4093.33,4175.9,4082.56,3880.51,4410.26,4187.69,4587.18,4537.44,4305.64,3919.49,4242.05,4614.87,4387.69,4642.05,1694,1708,3.112,0,0,0,0,1,0,
115,4102.05,4177.95,4087.69,3880,4411.28,4184.1,4589.74,4550.77,4313.85,3930.26,4254.87,4615.9,4403.08,4649.23,1693,1708,3.12,0,0,0,0,1,0,
116,4105.13,4179.49,4092.31,3879.49,4413.33,4197.44,4595.38,4561.03,4329.74,3948.21,4270.77,4623.59,4408.21,4655.38,1694,1708,3.127,0,0,0,0,1,0,
117,4098.46,4172.82,4086.67,3879.49,4412.31,4203.59,4595.9,4556.92,4325.13,3941.54,4257.44,4622.05,4397.44,4649.74,1694,1709,3.135,0,0,0,0,1,0,
118,4091.79,4169.23,4081.03,3877.44,4412.31,4196.92,4590.77,4553.85,4312.82,3930.26,4248.21,4614.87,4387.69,4643.59,1695,1709,3.143,0,0,0,0,1,0,
119,4092.31,4172.31,4084.1,3875.9,4414.87,4196.92,4590.26,4554.36,4311.79,3933.85,4260.51,4617.44,4391.28,4645.13,1694,1709,3.15,0,0,0,0,1,0,
120,4093.33,4171.79,4088.21,3876.41,4413.85,4198.46,4589.74,4551.79,4310.77,3931.79,4257.95,4617.95,4396.41,4644.1,1695,1710,3.158,0,0,0,0,1,0,
121,4093.33,4175.38,4089.74,3878.97,4411.79,4196.92,4587.69,4551.28,4310.77,3928.72,4243.08,4614.87,4393.33,4645.13,1696,1709,3.166,0,0,0,0,1,0,
122,4095.38,4183.59,4092.31,3882.56,4416.41,4201.03,4593.33,4554.36,4321.54,3945.64,4253.85,4622.56,4393.33,4655.9,1694,1711,3.174,0,0,0,0,1,0,
123,4095.9,4186.15,4093.33,3883.59,4420,4204.1,4601.54,4555.9,4323.59,3957.95,4269.23,4628.21,4402.05,4658.46,1696,1710,3.182,0,0,0,0,1,0,
124,4095.9,4183.08,4089.74,3882.05,4415.9,4201.54,4601.03,4555.38,4316.41,3952.82,4263.59,4623.59,4405.13,4651.79,1694,1710,3.19,0,0,0,0,1,0,
125,4101.03,4183.08,4093.85,3883.08,4413.33,4201.54,4598.97,4555.9,4318.97,3947.69,4266.15,4625.13,4402.56,4653.85,1695,1711,3.197,0,0,0,0,1,0,
126,4106.15,4186.67,4103.08,3883.08,4415.9,4201.54,4598.46,4557.95,4324.1,3941.54,4276.41,4632.82,4404.1,4660.51,1694,1711,3.205,0,0,0,0,1,0,
127,4098.46,4177.95,4100,3877.44,4410.77,4191.79,4591.28,4558.97,4322.56,3942.05,4272.82,4634.36,4406.15,4656.92,1695,1711,3.213,0,0,0,0,1,0,
128,4089.23,4166.67,4089.74,3873.85,4403.08,4183.08,4587.69,4557.95,4317.44,3946.67,4260.51,4630.26,4397.44,4651.28,1694,1710,3.221,0,0,0,0,1,0,
0,4094.36,4168.72,4089.23,3875.38,4407.18,4189.23,4591.28,4555.9,4311.28,3937.44,4251.28,4623.08,4386.15,4648.21,1695,1709,3.229,0,0,0,0,1,0,
1,4097.44,4172.82,4090.26,3876.41,4414.36,4201.54,4590.77,4553.85,4307.18,3922.56,4248.72,4617.95,4387.69,4647.18,1694,1708,3.237,0,0,0,0,1,0,
2,4094.87,4169.74,4090.26,3876.92,4412.31,4201.03,4585.64,4553.33,4313.85,3933.33,4260.51,4624.62,4395.9,4652.31,1695,1710,3.244,0,0,0,0,1,0,
3,4100.51,4175.38,4093.33,3880,4410.77,4189.23,4584.62,4553.85,4317.95,3953.33,4270.77,4630.77,4397.95,4656.92,1696,1709,3.253,0,0,0,0,1,0,
4,4104.62,4184.1,4091.79,3879.49,4412.82,4186.67,4587.18,4552.31,4310.77,3939.49,4264.62,4625.13,4398.46,4653.33,1695,1711,3.26,0,0,0,0,1,0,
5,4101.03,4184.62,4094.87,3876.92,4411.79,4194.87,4587.18,4553.33,4313.33,3926.15,4262.05,4625.13,4403.08,4652.31,1696,1709,3.268,0,0,0,0,1,0,
6,4107.18,4186.67,4105.13,3887.18,4410.26,4200,4586.67,4557.44,4318.97,3942.05,4268.21,4634.36,4407.18,4661.54,1695,1709,3.276,0,0,0,0,1,0,
7,4110.26,4190.26,4097.95,3893.85,4411.79,4195.38,4586.67,4551.28,4310.26,3942.05,4266.15,4629.74,4405.64,4661.54,1695,1709,3.283,0,0,0,0,1,0,
8,4096.92,4183.59,4087.18,3882.05,4412.82,4186.15,4583.08,4544.1,4306.15,3924.1,4263.59,4616.41,4395.38,4650.77,1694,1708,3.291,0,0,0,0,1,0,
9,4088.72,4173.33,4088.72,3874.36,4413.85,4183.59,4579.49,4548.72,4315.38,3926.15,4263.59,4616.92,4385.13,4647.69,1694,1708,3.3,0,0,0,0,1,0,
10,4091.28,4168.21,4087.18,3877.95,4411.79,4187.18,4581.54,4554.36,4313.85,3932.82,4252.82,4620.51,4387.18,4644.62,1693,1707,3.307,0,0,0,0,1,0,
11,4091.28,4168.21,4082.05,3876.41,4406.15,4188.21,4585.64,4552.82,4310.77,3925.64,4249.23,4615.9,4391.28,4641.54,1693,1706,3.315,0,0,0,0,1,0,
12,4089.74,4171.79,4087.18,3874.87,4405.64,4184.62,4584.62,4552.31,4310.26,3924.62,4256.41,4615.9,4387.18,4647.18,1691,1705,3.323,0,0,0,0,1,0,
13,4088.72,4168.72,4089.74,3875.38,4402.56,4186.67,4584.1,4550.26,4301.54,3929.23,4250.77,4617.44,4386.67,4647.18,1690,1707,3.33,0,0,0,0,1,0,
14,4088.72,4166.15,4087.18,3872.31,4395.9,4190.77,4585.64,4548.72,4296.92,3928.21,4248.72,4617.44,4393.85,4642.05,1690,1705,3.338,0,0,0,0,1,0,
15,4091.28,4177.44,4089.23,3875.9,4403.59,4189.74,4584.62,4551.28,4302.56,3925.13,4261.03,4618.46,4397.95,4647.18,1688,1707,3.346,0,0,0,0,1,0,
16,4092.82,4184.62,4090.26,3882.05,4410.77,4184.1,4582.56,4553.33,4307.69,3927.18,4263.08,4616.92,4396.92,4651.28,1689,1708,3.354,0,0,0,0,1,0,
17,4094.36,4180,4090.26,3879.49,4403.08,4183.59,4583.59,4552.31,4308.72,3936.92,4258.97,4617.44,4396.41,4650.77,1687,1709,3.362,0,0,0,0,1,0,
18,4103.08,4179.49,4090.77,3878.46,4403.59,4194.36,4587.18,4553.85,4315.38,3944.62,4265.13,4625.13,4395.9,4654.36,1688,1711,3.369,0,0,0,0,1,0,
19,4109.23,4186.67,4089.74,3879.49,4415.9,4202.56,4589.23,4563.08,4325.64,3944.62,4268.21,4627.18,4401.54,4658.46,1688,1710,3.377,0,0,0,0,1,0,
20,4103.08,4185.64,4088.72,3877.95,4412.31,4200.51,4588.72,4569.74,4324.1,3942.56,4264.62,4622.56,4412.82,4658.97,1687,1711,3.385,0,0,0,0,1,0,
21,4097.44,4174.36,4088.72,3874.87,4399.49,4200,4588.72,4560.51,4311.79,3938.46,4267.18,4623.59,4409.23,4660.51,1689,1709,3.393,0,0,0,0,1,0,
22,4098.97,4168.21,4089.74,3869.74,4397.44,4206.15,4588.21,4553.85,4311.28,3932.82,4268.72,4626.67,4394.87,4660,1689,1709,3.401,0,0,0,0,1,0,
23,4093.85,4169.74,4089.23,3865.13,4398.97,4192.31,4584.62,4554.87,4311.79,3930.77,4264.62,4620.51,4393.85,4653.33,1689,1708,3.409,0,0,0,0,1,0,
24,4089.74,4169.74,4085.13,3864.1,4398.46,4171.79,4581.54,4547.18,4300.51,3930.26,4261.54,4614.36,4401.03,4648.21,1691,1710,3.416,0,0,0,0,1,0,
25,4093.85,4166.15,4083.08,3871.28,4398.97,4181.54,4584.62,4542.05,4298.46,3925.13,4261.54,4620.51,4393.85,4653.85,1691,1709,3.425,0,0,0,0,1,0,
26,4095.9,4168.72,4084.1,3876.92,4401.03,4202.05,4588.72,4552.31,4309.74,3931.79,4266.15,4626.67,4392.31,4660.51,1691,1711,3.432,0,0,0,0,1,0,
27,4093.85,4172.31,4080.51,3872.82,4405.64,4203.08,4589.23,4557.44,4315.38,3946.15,4264.62,4621.54,4403.59,4654.87,1693,1711,3.44,0,0,0,0,1,0,
28,4088.21,4167.18,4072.82,3863.08,4404.62,4192.82,4588.21,4545.64,4306.67,3929.23,4254.87,4611.79,4400,4646.15,1692,1710,3.448,0,0,0,0,1,0,
29,4081.54,4162.05,4071.79,3859.49,4398.46,4184.1,4587.69,4540.51,4297.95,3908.72,4250.77,4608.21,4388.21,4645.13,1693,1711,3.456,0,0,0,0,1,0,
30,4085.64,4167.18,4076.92,3870.77,4398.46,4187.18,4587.69,4551.28,4301.54,3929.23,4258.97,4612.82,4396.92,4649.74,1692,1710,3.463,0,0,0,0,1,0,
31,4096.41,4173.33,4078.46,3876.92,4402.56,4201.03,4587.18,4557.44,4312.31,3948.72,4266.67,4619.49,4403.59,4653.85,1692,1711,3.471,0,0,0,0,1,0,
32,4091.79,4169.23,4074.36,3867.69,4398.46,4196.41,4586.67,4551.79,4310.26,3933.85,4260.51,4618.46,4388.72,4647.69,1693,1711,3.479,0,0,0,0,1,0,
33,4083.59,4166.67,4072.82,3861.54,4392.82,4185.64,4586.15,4550.77,4299.49,3920,4251.28,4613.85,4381.54,4644.1,1693,1711,3.487,0,0,0,0,1,0,
34,4089.23,4163.59,4075.9,3864.62,4394.87,4195.9,4587.69,4555.38,4295.38,3915.9,4249.23,4615.9,4388.21,4649.74,1693,1711,3.495,0,0,0,0,1,0,
35,4090.77,4155.38,4074.36,3862.56,4397.95,4199.49,4590.26,4553.33,4300,3911.79,4249.23,4617.44,4390.77,4650.77,1692,1711,3.502,0,0,0,0,1,0,
36,4082.56,4159.49,4073.85,3862.05,4399.49,4194.87,4594.36,4560.51,4317.95,3923.59,4254.87,4617.95,4392.82,4647.18,1693,1710,3.51,0,0,0,0,1,0,
37,4081.03,4167.18,4077.95,3868.72,4400,4197.95,4597.44,4572.31,4331.79,3940,4263.08,4620.51,4397.44,4648.21,1692,1710,3.518,0,0,0,0,1,0,
38,4083.59,4162.56,4078.46,3865.64,4398.97,4191.28,4593.33,4566.15,4322.05,3944.62,4263.59,4620,4394.87,4649.23,1693,1710,3.526,0,0,0,0,1,0,
39,4082.05,4162.05,4075.38,3862.05,4400.51,4187.18,4591.28,4553.85,4311.79,3942.56,4257.44,4617.95,4388.72,4649.23,1692,1709,3.534,0,0,0,0,1,0,
40,4083.59,4170.26,4076.92,3866.67,4398.97,4198.97,4593.33,4554.87,4318.97,3935.9,4258.97,4619.49,4384.62,4649.23,1692,1707,3.542,0,0,0,0,1,0,
41,4086.67,4168.72,4081.54,3868.72,4393.33,4192.31,4590.77,4555.9,4322.56,3928.21,4258.97,4618.97,4385.13,4649.23,1692,1707,3.55,0,0,0,0,1,0,
42,4086.67,4166.67,4085.13,3866.15,4393.85,4177.44,4585.64,4552.82,4312.31,3928.72,4255.9,4617.44,4387.69,4649.23,1692,1706,3.558,0,0,0,0,1,0,
43,4089.74,4170.77,4085.64,3865.13,4395.38,4184.62,4586.67,4553.85,4310.77,3928.21,4258.46,4621.54,4378.97,4651.79,1692,1706,3.565,0,0,0,0,1,0,
44,4088.21,4163.59,4082.56,3865.13,4390.77,4189.23,4586.15,4547.69,4312.31,3914.36,4253.33,4620.51,4372.31,4646.15,1692,1706,3.573,0,0,0,0,1,0,
45,4083.08,4154.36,4078.97,3865.13,4388.21,4183.59,4584.1,4540,4306.15,3907.18,4243.59,4615.9,4377.95,4638.46,1691,1710,3.581,0,0,0,0,1,0,
46,4081.54,4157.95,4077.95,3864.62,4389.23,4185.13,4585.64,4546.67,4306.67,3918.46,4243.08,4615.38,4380,4641.03,1692,1711,3.589,0,0,0,0,1,0,
47,4079.49,4159.49,4076.41,3865.13,4389.74,4186.15,4586.15,4553.85,4310.77,3929.74,4247.69,4610.26,4372.82,4642.56,1690,1710,3.596,0,0,0,0,1,0,
48,4073.33,4152.82,4074.36,3864.62,4391.28,4186.67,4586.15,4551.28,4309.23,3929.23,4245.64,4603.08,4369.23,4632.82,1690,1713,3.605,0,0,0,0,1,0,
49,4070.26,4148.21,4072.31,3859.49,4391.79,4189.23,4585.64,4548.72,4308.21,3920.51,4241.03,4602.05,4366.67,4627.18,1690,1712,3.612,0,0,0,0,1,0,
50,4073.33,4151.79,4071.28,3858.46,4387.69,4186.15,4584.1,4546.15,4310.26,3912.31,4242.05,4602.56,4364.1,4631.79,1689,1714,3.62,0,0,0,0,1,0,
51,4075.9,4152.82,4073.33,3862.56,4388.21,4184.62,4584.62,4546.15,4306.67,3913.85,4246.15,4602.05,4368.72,4633.33,1689,1713,3.628,0,0,0,0,1,0,
52,4075.9,4153.33,4075.9,3863.08,4390.26,4188.21,4585.64,4548.21,4299.49,3913.85,4247.18,4603.59,4369.74,4632.82,1689,1713,3.635,0,0,0,0,1,0,
53,4077.95,4159.49,4075.38,3862.05,4389.23,4187.69,4582.05,4543.08,4294.87,3898.46,4242.05,4607.18,4364.1,4634.36,1688,1712,3.643,0,0,0,0,1,0,
54,4081.54,4161.03,4074.36,3863.08,4392.82,4184.62,4580,4537.95,4295.38,3896.92,4239.49,4611.28,4364.1,4634.87,1687,1714,3.651,0,0,0,0,1,0,
55,4080.51,4155.38,4075.9,3862.05,4397.44,4185.64,4582.05,4540.51,4297.95,3912.31,4237.95,4608.72,4366.67,4634.36,1689,1713,3.659,0,0,0,0,1,0,
56,4072.31,4151.79,4072.82,3860.51,4393.85,4185.64,4584.62,4537.95,4295.9,3907.69,4233.85,4600,4359.49,4631.79,1687,1714,3.667,0,0,0,0,1,0,
57,4067.69,4151.79,4066.15,3861.54,4389.23,4184.1,4583.08,4533.85,4295.38,3893.33,4229.74,4598.97,4352.31,4630.26,1688,1714,3.675,0,0,0,0,1,0,
58,4071.28,4151.28,4067.18,3860,4389.74,4185.13,4581.54,4538.46,4304.62,3900.51,4234.87,4607.18,4365.64,4634.36,1687,1713,3.682,0,0,0,0,1,0,
59,4076.92,4152.31,4074.87,3859.49,4389.74,4184.62,4583.08,4544.62,4318.46,3916.92,4248.21,4611.28,4379.49,4639.49,1689,1714,3.69,0,0,0,0,1,0,
60,4076.92,4152.82,4075.9,3861.54,4389.23,4184.1,4578.46,4543.59,4312.31,3911.79,4245.13,4606.67,4368.72,4635.38,1689,1712,3.699,0,0,0,0,1,0,
61,4070.26,4149.74,4069.74,3854.87,4388.21,4180,4570.77,4538.46,4294.36,3892.82,4230.77,4600,4354.87,4628.21,1691,1713,3.706,0,0,0,0,1,0,
62,4065.13,4150.26,4065.13,3846.67,4384.1,4175.38,4569.74,4537.95,4296.92,3892.31,4231.28,4602.05,4356.92,4628.72,1692,1712,3.714,0,0,0,0,1,0,
63,4067.18,4152.82,4064.62,3853.33,4386.15,4179.49,4571.79,4538.46,4303.08,3900.51,4234.36,4605.13,4358.97,4627.18,1692,1713,3.721,0,0,0,0,1,0,
64,4073.85,4154.87,4069.74,3864.62,4395.38,4182.05,4570.77,4534.87,4290.26,3886.67,4227.69,4600,4355.38,4621.54,1694,1711,3.73,0,0,0,0,1,0,
65,4076.41,4156.41,4075.9,3866.15,4402.05,4182.05,4572.31,4533.85,4286.67,3879.49,4234.36,4602.05,4360.51,4626.67,1695,1711,3.737,0,0,0,0,1,0,
66,4074.87,4155.9,4076.92,3863.59,4403.08,4185.64,4578.46,4537.44,4301.03,3901.03,4252.31,4610.26,4372.31,4634.36,1696,1709,3.745,0,0,0,0,1,0,
67,4074.87,4154.36,4073.33,3863.59,4401.03,4182.56,4580,4537.95,4307.69,3914.36,4258.97,4608.21,4369.74,4631.28,1695,1709,3.753,0,0,0,0,1,0,
68,4073.33,4154.36,4073.33,3863.08,4397.95,4174.36,4582.05,4537.95,4308.21,3900,4254.36,4605.13,4357.44,4628.21,1697,1709,3.761,0,0,0,0,1,0,
69,4073.85,4154.87,4076.41,3864.1,4393.85,4180,4585.64,4540,4310.26,3889.23,4244.1,4608.72,4360.51,4630.26,1696,1708,3.768,0,0,0,0,1,0,
70,4078.46,4154.87,4076.92,3863.59,4395.38,4188.72,4586.67,4541.54,4310.77,3898.46,4247.69,4611.28,4378.97,4630.26,1695,1709,3.776,0,0,0,0,1,0,
71,4077.95,4153.85,4072.31,3862.56,4399.49,4186.15,4584.62,4542.56,4314.87,3911.79,4258.97,4611.79,4381.03,4628.72,1694,1707,3.785,0,0,0,0,1,0,
72,4074.87,4157.44,4067.69,3868.72,4396.41,4182.05,4584.1,4543.08,4318.97,3915.38,4253.33,4612.82,4373.33,4630.26,1692,1709,3.792,0,0,0,0,1,0,
73,4081.03,4165.64,4073.85,3875.38,4394.36,4182.05,4584.62,4541.03,4317.44,3912.31,4250.26,4614.36,4383.59,4636.92,1692,1708,3.8,0,0,0,0,1,0,
74,4084.1,4168.72,4079.49,3871.28,4399.49,4185.13,4586.15,4541.54,4312.31,3909.23,4264.62,4616.41,4390.77,4641.54,1690,1708,3.808,0,0,0,0,1,0,
75,4076.92,4164.62,4072.31,3863.59,4402.56,4185.64,4584.1,4541.54,4308.21,3910.77,4268.72,4613.33,4381.03,4637.95,1690,1707,3.816,0,0,0,0,1,0,
76,4073.85,4164.1,4064.62,3863.08,4400,4182.05,4574.36,4536.92,4305.64,3913.33,4257.44,4604.1,4378.97,4631.79,1688,1707,3.823,0,0,0,0,1,0,
77,4074.87,4166.67,4065.64,3865.13,4401.54,4182.56,4572.82,4534.36,4302.05,3901.54,4255.38,4600,4380,4631.28,1689,1708,3.831,0,0,0,0,1,0,
78,4072.82,4165.13,4067.18,3863.59,4399.49,4188.21,4581.03,4536.41,4302.56,3894.36,4262.56,4606.15,4374.87,4634.36,1689,1709,3.839,0,0,0,0,1,0,
79,4078.46,4167.18,4068.21,3863.08,4390.77,4187.18,4578.97,4538.97,4312.31,3909.23,4265.64,4613.85,4380,4638.46,1690,1709,3.847,0,0,0,0,1,0,
80,4085.13,4168.21,4069.23,3863.08,4390.26,4182.56,4569.23,4539.49,4310.77,3909.23,4260,4609.23,4388.21,4636.41,1690,1708,3.854,0,0,0,0,1,0,
81,4079.49,4160.51,4068.72,3862.05,4395.38,4182.56,4571.28,4541.03,4300,3888.72,4258.97,4606.15,4383.08,4632.82,1690,1709,3.861,0,0,0,0,1,0,
82,4075.9,4157.95,4070.26,3862.56,4395.9,4183.59,4580,4540,4301.03,3893.33,4265.13,4612.31,4378.97,4637.44,1692,1707,3.87,0,0,0,0,1,0,
83,4079.49,4168.21,4075.38,3863.08,4394.87,4183.08,4584.62,4539.49,4309.23,3913.33,4265.64,4613.33,4384.62,4639.49,1691,1709,3.878,0,0,0,0,1,0,
84,4080,4171.28,4077.44,3863.59,4391.28,4184.1,4587.18,4543.59,4316.92,3916.41,4263.59,4609.23,4391.79,4633.85,1693,1709,3.886,0,0,0,0,1,0,
85,4075.38,4158.97,4071.79,3862.56,4386.15,4186.67,4588.21,4545.64,4320.51,3910.26,4260.51,4608.72,4382.05,4631.28,1692,1710,3.894,0,0,0,0,1,0,
86,4073.33,4151.28,4067.18,3861.03,4390.77,4189.23,4587.18,4540.51,4312.31,3902.05,4249.23,4604.1,4363.08,4631.79,1692,1711,3.901,0,0,0,0,1,0,
87,4071.79,4158.97,4071.28,3862.05,4398.46,4187.18,4586.67,4537.95,4301.03,3891.28,4243.08,4598.97,4368.21,4629.74,1692,1709,3.91,0,0,0,0,1,0,
88,4075.9,4166.67,4074.87,3865.64,4396.92,4187.18,4587.18,4546.67,4306.15,3892.31,4255.38,4607.18,4383.59,4632.31,1693,1709,3.917,0,0,0,0,1,0,
89,4087.18,4165.64,4080.51,3865.64,4394.36,4194.36,4588.21,4554.36,4319.49,3906.15,4266.15,4615.9,4383.59,4642.56,1692,1708,3.925,0,0,0,0,1,0,
90,4093.85,4165.13,4087.18,3864.62,4399.49,4192.82,4588.72,4554.36,4322.56,3903.59,4266.15,4617.95,4383.59,4650.77,1692,1708,3.933,0,0,0,0,1,0,
91,4089.23,4167.18,4087.18,3866.15,4402.05,4184.1,4587.69,4551.79,4314.87,3892.31,4263.59,4617.44,4387.69,4649.74,1690,1708,3.94,0,0,0,0,1,0,
92,4084.1,4167.69,4081.54,3866.67,4395.38,4183.59,4585.64,4550.77,4309.74,3902.05,4265.13,4614.87,4383.59,4645.13,1691,1708,3.948,0,0,0,0,1,0,
93,4089.74,4164.62,4084.1,3866.15,4391.28,4186.15,4585.13,4552.82,4312.82,3909.74,4266.67,4617.44,4378.46,4647.69,1690,1708,3.956,0,0,0,0,1,0,
94,4091.79,4159.49,4085.13,3865.64,4397.44,4184.62,4586.15,4552.82,4313.85,3897.44,4255.9,4617.95,4375.9,4649.74,1691,1707,3.964,0,0,0,0,1,0,
95,4080,4154.87,4076.92,3862.05,4401.03,4186.15,4585.13,4549.74,4308.21,3887.69,4250.26,4610.77,4371.28,4644.1,1690,1707,3.972,0,0,0,0,1,0,
96,4072.31,4153.33,4076.92,3860.51,4395.38,4187.69,4584.62,4547.18,4305.64,3891.79,4258.97,4609.23,4370.26,4640.51,1691,1708,3.98,0,0,0,0,1,0,
97,4076.41,4155.38,4082.56,3865.13,4391.79,4188.21,4585.13,4550.26,4312.31,3899.49,4266.15,4617.44,4369.74,4644.62,1691,1709,3.987,0,0,0,0,1,0,
98,4084.62,4157.95,4083.59,3865.64,4396.41,4189.23,4586.15,4553.85,4319.49,3909.23,4262.05,4620,4373.33,4647.69,1693,1711,3.995,0,0,0,0,1,0,
99,4089.23,4158.97,4084.62,3862.05,4398.46,4186.15,4585.64,4553.33,4317.95,3912.31,4262.05,4615.9,4385.13,4645.64,1692,1711,4.003,0,0,0,0,1,0,
100,4089.74,4154.87,4084.1,3863.08,4395.9,4184.62,4586.15,4551.79,4310.26,3904.62,4264.1,4615.9,4385.64,4645.64,1692,1712,4.011,0,0,0,0,1,0,
101,4083.59,4155.9,4077.44,3864.1,4394.87,4186.15,4585.13,4550.77,4308.72,3896.92,4258.97,4613.85,4377.44,4643.59,1695,1709,4.018,0,0,0,0,1,0,
102,4078.46,4163.59,4074.87,3863.59,4398.97,4186.15,4584.1,4554.87,4318.46,3897.44,4259.49,4608.21,4382.05,4638.46,1693,1710,4.026,0,0,0,0,1,0,
103,4077.95,4162.56,4078.46,3865.64,4398.46,4187.18,4584.1,4553.85,4315.38,3897.44,4258.97,4605.64,4383.08,4633.85,1695,1710,4.035,0,0,0,0,1,0,
104,4073.85,4153.33,4071.79,3861.54,4395.38,4186.15,4583.08,4542.05,4297.95,3883.59,4247.69,4602.56,4364.62,4627.69,1694,1708,4.042,0,0,0,0,1,0,
105,4067.18,4150.26,4064.1,3854.36,4395.38,4182.05,4583.08,4542.05,4295.9,3874.87,4240.51,4597.95,4355.9,4622.05,1694,1708,4.05,0,0,0,0,1,0,
106,4065.64,4152.31,4067.69,3856.41,4391.79,4184.1,4586.67,4556.41,4311.28,3881.54,4249.23,4597.95,4365.64,4626.67,1693,1708,4.058,0,0,0,0,1,0,
107,4070.77,4151.28,4069.23,3862.56,4390.26,4188.72,4587.69,4554.87,4314.36,3881.54,4249.74,4602.05,4369.23,4631.79,1693,1709,4.066,0,0,0,0,1,0,
108,4071.28,4151.28,4063.59,3862.56,4396.41,4184.62,4584.1,4538.97,4301.03,3880.51,4233.85,4597.95,4361.54,4625.64,1692,1709,4.073,0,0,0,0,1,0,
109,4067.69,4152.31,4062.05,3858.46,4398.46,4180.51,4583.59,4534.87,4293.85,3890.26,4233.33,4594.36,4358.97,4624.1,1691,1710,4.08,0,0,0,0,1,0,
110,4072.31,4152.82,4063.59,3861.03,4395.38,4184.1,4584.62,4542.05,4297.95,3897.44,4247.69,4600,4363.59,4631.79,1691,1710,4.089,0,0,0,0,1,0,
111,4076.92,4155.38,4064.62,3865.64,4397.95,4186.15,4578.97,4541.03,4303.59,3891.79,4251.79,4603.08,4370.77,4634.87,1689,1712,4.096,0,0,0,0,1,0,
112,4070.77,4153.33,4063.08,3857.44,4396.92,4184.62,4576.92,4537.95,4304.62,3883.08,4248.72,4598.46,4371.79,4631.28,1690,1711,4.105,0,0,0,0,1,0,
113,4065.13,4151.79,4062.56,3849.74,4388.72,4184.62,4582.56,4545.64,4311.28,3886.67,4250.77,4597.44,4369.23,4629.74,1688,1711,4.113,0,0,0,0,1,0,
114,4072.82,4154.87,4070.26,3856.41,4392.31,4187.18,4585.64,4554.36,4321.03,3894.87,4255.9,4602.05,4373.33,4636.41,1689,1711,4.12,0,0,0,0,1,0,
115,4080.51,4155.38,4076.92,3857.95,4397.95,4188.21,4584.62,4555.9,4316.41,3894.87,4260.51,4605.13,4374.87,4642.56,1687,1711,4.128,0,0,0,0,1,0,
116,4073.85,4152.31,4068.72,3849.23,4389.74,4180.51,4577.95,4552.31,4307.69,3893.33,4257.44,4604.1,4367.69,4637.44,1688,1711,4.135,0,0,0,0,1,0,
117,4066.15,4151.28,4060,3849.74,4378.46,4174.87,4570.77,4543.08,4306.67,3895.9,4246.67,4596.92,4363.08,4627.69,1689,1710,4.144,0,0,0,0,1,0,
118,4070.26,4151.79,4065.13,3853.33,4383.59,4180.51,4575.38,4537.95,4301.54,3891.79,4245.64,4594.87,4367.69,4626.67,1690,1711,4.151,0,0,0,0,1,0,
119,4073.85,4153.85,4069.23,3849.23,4394.36,4188.21,4584.62,4541.54,4295.38,3876.41,4250.26,4599.49,4367.18,4631.28,1690,1710,4.16,0,0,0,0,1,0,
120,4066.15,4151.79,4062.56,3849.23,4393.85,4193.33,4585.13,4541.54,4293.85,3858.97,4245.64,4593.85,4352.31,4628.72,1692,1711,4.167,0,0,0,0,1,0,
121,4060,4141.03,4055.9,3848.21,4383.08,4190.77,4584.1,4534.87,4293.33,3861.03,4243.08,4584.1,4342.05,4617.95,1693,1710,4.175,0,0,0,0,1,0,
122,4062.56,4138.46,4059.49,3846.15,4375.38,4187.18,4582.56,4541.03,4297.95,3886.67,4246.67,4590.26,4354.36,4617.95,1693,1712,4.183,0,0,0,0,1,0,
123,4069.74,4149.23,4070.26,3855.38,4384.62,4184.1,4581.03,4552.82,4308.21,3900.51,4248.72,4601.54,4369.74,4631.28,1695,1710,4.191,0,0,0,0,1,0,
124,4075.38,4156.41,4074.87,3864.1,4397.44,4174.87,4580.51,4555.9,4320,3896.92,4252.31,4602.56,4372.82,4635.9,1694,1711,4.199,0,0,0,0,1,0,
125,4076.41,4156.92,4073.33,3862.05,4399.49,4170.77,4575.38,4554.87,4326.15,3897.95,4264.1,4609.23,4377.95,4636.92,1695,1711,4.206,0,0,0,0,1,0,
126,4079.49,4158.46,4076.92,3861.54,4393.85,4182.05,4576.41,4557.44,4323.59,3902.56,4271.28,4618.97,4384.62,4645.13,1694,1711,4.214,0,0,0,0,1,0,
127,4080,4155.9,4078.46,3865.64,4391.79,4189.23,4582.05,4553.85,4311.28,3896.41,4259.49,4611.79,4377.95,4642.56,1694,1710,4.221,0,0,0,0,1,0,
128,4070.77,4150.77,4068.72,3861.03,4390.26,4181.54,4576.41,4540,4297.44,3882.56,4246.15,4600.51,4366.67,4628.21,1694,1708,4.23,0,0,0,0,1,0,
0,4067.69,4150.77,4065.64,3854.36,4386.67,4183.08,4573.85,4535.38,4295.38,3877.95,4250.26,4599.49,4363.08,4626.15,1693,1710,4.238,0,0,0,0,1,0,
1,4073.33,4150.26,4071.79,3858.46,4386.15,4187.69,4582.56,4541.03,4296.41,3880,4249.74,4600.51,4356.92,4629.23,1693,1709,4.246,0,0,0,0,1,0,
2,4077.95,4152.82,4074.87,3862.56,4388.21,4184.1,4586.67,4541.54,4295.9,3877.95,4243.08,4602.56,4355.38,4630.77,1692,1711,4.253,0,0,0,0,1,0,
3,4083.08,4159.49,4075.9,3865.64,4393.33,4183.08,4583.08,4537.95,4300.51,3880.51,4255.38,4609.74,4370.26,4638.97,1692,1710,4.261,0,0,0,0,1,0,
4,4083.59,4156.41,4076.92,3865.13,4396.92,4181.54,4576.92,4539.49,4303.59,3875.9,4262.56,4610.26,4372.31,4640.51,1691,1712,4.269,0,0,0,0,1,0,
5,4075.38,4149.74,4073.33,3860,4391.79,4173.33,4570.77,4540,4296.92,3864.62,4248.21,4602.56,4359.49,4631.28,1691,1710,4.277,0,0,0,0,1,0,
6,4073.33,4150.77,4072.82,3858.97,4381.54,4166.67,4572.31,4537.95,4294.36,3877.95,4251.79,4602.05,4358.97,4631.79,1689,1712,4.285,0,0,0,0,1,0,
7,4078.46,4153.33,4077.95,3863.08,4377.95,4173.33,4574.36,4545.64,4307.18,3901.54,4265.13,4610.77,4372.31,4642.56,1690,1712,4.292,0,0,0,0,1,0,
8,4078.46,4151.28,4078.97,3862.56,4382.05,4183.59,4570.26,4554.36,4315.9,3900.51,4256.92,4613.85,4375.38,4643.08,1689,1711,4.3,0,0,0,0,1,0,
9,4075.38,4151.79,4072.31,3857.95,4383.08,4185.13,4569.74,4547.18,4307.18,3890.26,4245.13,4605.64,4366.67,4634.36,1689,1713,4.308,0,0,0,0,1,0,
10,4075.38,4153.85,4066.15,3851.79,4382.56,4182.56,4572.82,4535.9,4293.33,3882.05,4247.69,4598.46,4360,4630.26,1690,1712,4.316,0,0,0,0,1,0,
11,4072.31,4150.26,4064.1,3845.64,4382.05,4181.03,4572.31,4537.44,4288.72,3864.1,4247.69,4596.41,4358.97,4629.23,1689,1712,4.324,0,0,0,0,1,0,
12,4073.33,4152.82,4067.18,3850.77,4384.62,4183.08,4571.28,4540,4294.36,3864.1,4246.15,4600.51,4370.26,4633.85,1690,1712,4.332,0,0,0,0,1,0,
13,4086.15,4163.59,4072.82,3863.08,4391.79,4185.64,4580.51,4537.44,4302.05,3888.72,4256.41,4609.74,4378.97,4646.15,1690,1712,4.339,0,0,0,0,1,0,
14,4102.05,4171.79,4076.41,3865.13,4395.38,4178.46,4587.69,4537.44,4305.64,3896.92,4269.74,4615.9,4384.1,4658.97,1690,1711,4.347,0,0,0,0,1,0,
15,4114.87,4178.46,4081.03,3863.59,4390.26,4167.69,4577.44,4537.44,4298.46,3881.54,4270.26,4616.92,4397.44,4665.64,1689,1711,4.355,0,0,0,0,1,0,
16,4124.62,4183.08,4087.18,3869.23,4382.56,4165.64,4567.18,4535.9,4290.77,3873.33,4263.08,4624.1,4410.77,4673.85,1691,1711,4.363,0,0,0,0,1,0,
17,4140,4187.69,4093.33,3878.46,4379.49,4168.21,4571.28,4537.95,4298.97,3882.05,4271.28,4635.38,4423.08,4688.72,1691,1711,4.371,0,0,0,0,1,0,
18,4167.18,4205.13,4102.56,3889.23,4387.18,4168.72,4574.36,4541.54,4305.13,3885.64,4290.77,4643.59,4437.44,4706.67,1691,1710,4.378,0,0,0,0,1,0,
19,4188.72,4222.05,4110.77,3896.41,4397.44,4170.26,4571.28,4540,4293.85,3878.46,4296.41,4652.82,4451.28,4718.46,1692,1710,4.386,0,0,0,0,1,0,
20,4188.72,4220,4110.77,3894.36,4392.31,4168.21,4570.26,4536.92,4289.23,3875.9,4294.36,4658.46,4458.97,4723.59,1692,1709,4.394,0,0,0,0,1,0,
21,4189.74,4213.85,4108.21,3890.77,4381.03,4165.13,4571.28,4539.49,4297.95,3880,4299.49,4658.97,4463.59,4733.33,1692,1709,4.402,0,0,0,0,1,0,
22,4202.56,4217.95,4111.79,3892.31,4385.13,4167.18,4571.79,4538.46,4294.87,3882.56,4299.49,4659.49,4460,4740,1692,1709,4.409,0,0,0,0,1,0,
23,4206.15,4221.03,4112.82,3894.36,4392.31,4169.74,4571.79,4534.87,4292.31,3885.13,4292.31,4660,4458.97,4736.41,1692,1710,4.418,0,0,0,0,1,0,
24,4202.56,4218.97,4110.77,3889.23,4388.72,4167.18,4570.77,4538.97,4305.64,3890.26,4295.9,4657.95,4464.1,4734.87,1692,1708,4.425,0,0,0,0,1,0,
25,4198.46,4212.82,4108.21,3877.44,4382.56,4164.62,4572.31,4541.54,4306.15,3875.38,4297.95,4653.85,4448.21,4736.92,1691,1708,4.433,0,0,0,0,1,0,
26,4189.74,4213.33,4104.62,3875.38,4381.03,4166.67,4572.31,4538.97,4296.41,3854.36,4285.64,4647.69,4438.46,4731.28,1692,1708,4.441,0,0,0,0,1,0,
27,4185.13,4220,4104.1,3889.23,4385.13,4167.69,4571.79,4540,4302.56,3867.18,4281.54,4646.67,4455.9,4724.1,1692,1707,4.449,0,0,0,0,1,0,
28,4182.05,4212.82,4105.13,3891.79,4387.69,4167.18,4572.31,4542.05,4311.79,3886.15,4286.15,4648.72,4458.46,4719.49,1693,1710,4.457,0,0,0,0,1,0,
29,4169.74,4201.54,4102.56,3881.03,4383.59,4169.74,4573.85,4540.51,4305.64,3882.05,4284.62,4643.08,4436.92,4710.77,1693,1709,4.464,0,0,0,0,1,0,
30,4158.97,4199.49,4096.92,3877.95,4381.54,4173.33,4574.36,4537.95,4295.9,3875.38,4277.95,4634.36,4422.05,4697.44,1693,1710,4.472,0,0,0,0,1,0,
31,4150.77,4192.82,4092.31,3880.51,4384.1,4172.31,4572.31,4534.36,4291.28,3868.72,4267.18,4630.26,4411.79,4688.72,1694,1709,4.48,0,0,0,0,1,0,
32,4140.51,4183.08,4091.79,3878.46,4383.59,4170.26,4571.28,4535.38,4301.54,3862.56,4265.64,4630.77,4405.64,4685.64,1694,1708,4.488,0,0,0,0,1,0,
33,4136.92,4184.1,4094.36,3876.92,4380,4169.23,4572.82,4541.03,4314.36,3872.31,4276.92,4632.82,4408.72,4684.1,1694,1709,4.495,0,0,0,0,1,0,
34,4133.33,4185.64,4093.85,3878.97,4381.54,4168.21,4571.79,4540.51,4305.13,3876.92,4276.41,4630.26,4401.54,4678.46,1694,1710,4.503,0,0,0,0,1,0,
35,4122.05,4180.51,4088.72,3870.77,4386.67,4168.21,4570.26,4535.9,4296.41,3867.18,4258.46,4620,4386.67,4667.69,1695,1710,4.51,0,0,0,0,1,0,
36,4118.97,4180,4088.72,3861.03,4389.23,4167.18,4571.28,4537.44,4305.13,3872.82,4255.38,4618.46,4386.67,4665.64,1694,1711,4.519,0,0,0,0,1,0,
37,4126.15,4186.15,4095.9,3870.77,4393.33,4172.82,4572.31,4542.05,4314.87,3889.74,4268.72,4632.82,4398.46,4674.87,1695,1711,4.527,0,0,0,0,1,0,
38,4124.1,4186.67,4096.41,3883.08,4399.49,4183.59,4572.31,4543.59,4311.28,3879.49,4274.87,4635.38,4401.54,4674.36,1694,1710,4.535,0,0,0,0,1,0,
39,4111.79,4176.41,4088.21,3872.82,4396.41,4185.64,4572.82,4540,4301.54,3860,4264.1,4618.46,4391.28,4656.41,1693,1710,4.543,0,0,0,0,1,0,
40,4104.1,4168.21,4083.59,3861.54,4389.74,4182.56,4574.36,4537.44,4297.95,3865.64,4250.77,4612.82,4381.54,4645.64,1694,1708,4.55,0,0,0,0,1,0,
41,4098.97,4167.69,4082.56,3865.64,4389.74,4182.05,4573.85,4539.49,4300.51,3882.56,4251.28,4618.46,4380,4646.15,1692,1709,4.558,0,0,0,0,1,0,
42,4092.31,4167.69,4076.92,3866.67,4386.67,4176.41,4571.79,4539.49,4299.49,3880,4252.31,4610.77,4375.9,4637.44,1692,1709,4.566,0,0,0,0,1,0,
43,4083.59,4165.13,4073.85,3860,4378.97,4166.67,4569.74,4535.9,4294.87,3864.62,4246.15,4597.95,4367.18,4628.21,1691,1710,4.573,0,0,0,0,1,0,
44,4077.95,4158.97,4074.36,3860.51,4380.51,4166.67,4571.28,4535.9,4297.44,3864.1,4245.64,4599.49,4366.67,4630.77,1690,1710,4.582,0,0,0,0,1,0,
45,4075.38,4152.31,4068.72,3863.08,4385.64,4169.23,4574.36,4538.46,4299.49,3863.59,4240,4601.54,4363.59,4628.72,1689,1710,4.589,0,0,0,0,1,0,
46,4071.79,4150.26,4063.59,3853.33,4382.05,4167.69,4573.85,4536.92,4293.33,3850.77,4230.77,4597.95,4350.26,4617.95,1691,1710,4.596,0,0,0,0,1,0,
47,4065.13,4151.28,4065.64,3845.64,4376.41,4167.18,4571.28,4535.9,4292.31,3846.15,4234.87,4596.92,4350.26,4621.54,1690,1709,4.605,0,0,0,0,1,0,
48,4069.23,4150.77,4069.23,3853.33,4378.46,4170.77,4571.79,4540.51,4305.64,3863.08,4246.15,4601.54,4364.62,4631.28,1691,1710,4.613,0,0,0,0,1,0,
49,4074.36,4153.33,4067.18,3856.92,4384.1,4174.87,4573.33,4543.59,4314.36,3873.85,4250.77,4602.56,4372.31,4625.64,1691,1709,4.621,0,0,0,0,1,0,
50,4063.59,4153.33,4062.05,3847.69,4380,4174.36,4572.31,4538.46,4298.46,3853.33,4242.05,4594.36,4362.05,4614.36,1691,1711,4.629,0,0,0,0,1,0,
51,4057.44,4146.67,4058.97,3847.69,4374.36,4171.28,4570.77,4534.87,4288.21,3838.46,4236.41,4585.13,4349.74,4614.87,1692,1709,4.637,0,0,0,0,1,0,
52,4060,4141.03,4060,3851.28,4378.97,4169.23,4571.79,4535.9,4303.59,3855.38,4241.03,4586.15,4352.31,4615.38,1691,1710,4.643,0,0,0,0,1,0,
53,4053.85,4139.49,4061.03,3845.64,4380,4168.21,4571.79,4537.44,4307.18,3870.77,4238.97,4587.69,4356.41,4607.18,1693,1710,4.652,0,0,0,0,1,0,
54,4050.26,4140.51,4058.97,3845.64,4377.95,4172.31,4571.79,4534.87,4293.33,3863.08,4229.74,4583.59,4347.18,4605.13,1692,1710,4.66,0,0,0,0,1,0,
55,4052.31,4137.95,4054.87,3850.77,4381.03,4175.38,4572.31,4527.18,4289.23,3857.95,4228.21,4583.59,4336.92,4609.74,1693,1712,4.668,0,0,0,0,1,0,
56,4047.18,4136.41,4050.77,3845.13,4378.46,4171.28,4569.74,4521.03,4294.36,3864.62,4231.79,4583.08,4340.51,4605.13,1692,1712,4.675,0,0,0,0,1,0,
57,4042.56,4137.95,4048.72,3840,4372.82,4166.15,4567.69,4521.54,4294.36,3855.9,4229.74,4580.51,4347.69,4597.44,1693,1712,4.683,0,0,0,0,1,0,
58,4047.69,4140,4052.31,3845.13,4377.95,4169.74,4569.74,4524.1,4287.69,3840.51,4229.23,4582.05,4350.26,4602.05,1692,1712,4.69,0,0,0,0,1,0,
59,4055.38,4144.1,4058.46,3848.21,4384.1,4174.87,4570.77,4523.08,4290.26,3845.13,4236.41,4587.69,4352.31,4613.85,1693,1712,4.699,0,0,0,0,1,0,
60,4060,4150.26,4061.54,3849.23,4382.56,4171.79,4570.26,4524.1,4302.05,3861.54,4242.56,4593.33,4355.9,4618.46,1694,1712,4.707,0,0,0,0,1,0,
61,4062.56,4151.79,4058.97,3854.87,4382.05,4169.74,4570.26,4526.67,4297.95,3868.21,4238.46,4594.87,4358.46,4616.41,1693,1713,4.715,0,0,0,0,1,0,
62,4062.05,4148.72,4058.97,3852.82,4382.56,4171.79,4570.77,4525.13,4282.56,3859.49,4230.26,4594.36,4356.41,4615.38,1694,1712,4.723,0,0,0,0,1,0,
63,4059.49,4143.08,4063.08,3848.21,4376.92,4168.21,4570.77,4523.59,4284.62,3851.28,4233.85,4596.41,4350.77,4616.41,1693,1713,4.73,0,0,0,0,1,0,
64,4057.44,4138.97,4062.56,3849.74,4372.82,4164.62,4570.77,4526.15,4294.36,3856.41,4234.87,4597.95,4340,4611.79,1694,1713,4.738,0,0,0,0,1,0,
65,4056.92,4142.56,4061.54,3848.72,4374.87,4167.18,4570.26,4531.79,4291.28,3863.59,4226.67,4597.44,4332.31,4611.79,1693,1712,4.746,0,0,0,0,1,0,
66,4063.08,4152.31,4070.26,3853.33,4383.59,4169.74,4570.77,4536.41,4296.41,3864.62,4232.82,4601.03,4349.74,4623.59,1693,1712,4.754,0,0,0,0,1,0,
67,4069.23,4153.85,4076.92,3862.56,4384.1,4169.23,4571.28,4537.44,4303.08,3865.13,4248.72,4607.69,4369.74,4630.26,1693,1711,4.761,0,0,0,0,1,0,
68,4064.1,4146.15,4073.85,3855.38,4375.9,4164.1,4568.72,4533.33,4293.33,3860.51,4250.26,4608.21,4363.08,4625.64,1693,1711,4.77,0,0,0,0,1,0,
69,4061.54,4146.67,4072.82,3849.23,4374.87,4158.46,4567.18,4535.38,4296.41,3861.54,4245.13,4609.74,4356.92,4624.62,1693,1711,4.777,0,0,0,0,1,0,
70,4069.23,4153.33,4075.38,3861.54,4385.64,4169.23,4571.28,4537.95,4308.21,3876.41,4246.15,4609.74,4364.62,4627.18,1692,1711,4.785,0,0,0,0,1,0,
71,4069.23,4149.74,4068.72,3862.05,4391.28,4184.1,4573.33,4530.26,4298.46,3877.44,4248.72,4603.59,4360.51,4623.59,1692,1710,4.793,0,0,0,0,1,0,
72,4061.03,4139.49,4062.05,3848.72,4383.59,4184.1,4570.77,4527.69,4286.67,3863.08,4243.08,4598.97,4348.72,4616.41,1691,1710,4.801,0,0,0,0,1,0,
73,4054.87,4135.9,4065.13,3846.15,4379.49,4182.56,4571.28,4537.44,4297.95,3859.49,4239.49,4600.51,4349.23,4616.41,1691,1710,4.809,0,0,0,0,1,0,
74,4055.9,4137.95,4069.23,3850.26,4383.08,4184.1,4573.33,4542.05,4307.69,3864.1,4248.72,4603.08,4356.41,4624.1,1691,1710,4.815,0,0,0,0,1,0,
75,4057.95,4137.95,4067.69,3848.21,4380,4174.36,4571.79,4540.51,4301.54,3873.85,4248.72,4602.56,4355.38,4624.1,1691,1709,4.825,0,0,0,0,1,0,
76,4055.9,4136.92,4064.62,3846.67,4370.77,4168.72,4570.77,4541.54,4298.97,3884.62,4234.87,4600,4349.23,4616.41,1692,1708,4.831,0,0,0,0,1,0,
77,4055.9,4136.92,4064.62,3846.67,4374.36,4174.36,4571.79,4542.05,4301.54,3874.87,4237.44,4593.33,4350.77,4612.82,1692,1708,4.84,0,0,0,0,1,0,
78,4058.46,4140,4064.62,3846.67,4386.67,4173.85,4571.79,4542.05,4305.13,3858.46,4244.1,4588.72,4356.41,4609.74,1692,1708,4.848,0,0,0,0,1,0,
79,4050.26,4139.49,4057.95,3846.15,4383.59,4168.72,4570.77,4537.95,4296.92,3863.08,4225.64,4584.1,4347.69,4601.54,1693,1706,4.854,0,0,0,0,1,0,
80,4038.97,4133.85,4050.26,3845.13,4373.33,4170.26,4570.26,4524.62,4280,3863.08,4210.77,4578.46,4334.36,4596.41,1692,1707,4.863,0,0,0,0,1,0,
81,4047.18,4134.36,4054.36,3845.13,4374.36,4170.77,4568.21,4523.59,4283.08,3860,4224.1,4583.08,4340,4602.56,1694,1708,4.87,0,0,0,0,1,0,
82,4060,4138.97,4061.54,3847.18,4373.33,4166.67,4566.67,4536.41,4295.9,3869.74,4242.05,4593.33,4349.74,4612.82,1693,1710,4.878,0,0,0,0,1,0,
83,4061.54,4139.49,4061.54,3852.31,4369.74,4166.15,4567.18,4542.05,4296.92,3882.56,4248.21,4600,4354.87,4618.97,1694,1711,4.886,0,0,0,0,1,0,
84,4059.49,4139.49,4058.97,3851.28,4374.36,4168.72,4567.18,4537.95,4295.9,3882.56,4239.49,4601.54,4351.79,4616.92,1693,1711,4.895,0,0,0,0,1,0,
85,4056.41,4138.97,4060.51,3846.15,4380,4169.74,4565.13,4537.95,4295.9,3870.26,4227.69,4595.38,4343.59,4615.9,1693,1712,4.903,0,0,0,0,1,0,
86,4054.87,4138.46,4060.51,3847.18,4382.05,4170.26,4567.18,4536.41,4286.15,3861.03,4234.36,4587.69,4349.23,4616.92,1693,1712,4.909,0,0,0,0,1,0,
87,4052.82,4137.95,4055.38,3847.69,4381.03,4171.79,4567.18,4529.23,4277.95,3859.49,4235.9,4587.18,4355.38,4608.21,1693,1712,4.918,0,0,0,0,1,0,
88,4048.72,4137.44,4049.74,3843.59,4376.41,4171.28,4558.97,4525.64,4281.03,3864.62,4218.97,4585.64,4345.64,4599.49,1692,1711,4.926,0,0,0,0,1,0,
89,4046.15,4134.87,4048.72,3843.08,4374.87,4170.26,4556.92,4523.59,4283.08,3870.77,4218.46,4581.54,4342.05,4598.97,1692,1712,4.934,0,0,0,0,1,0,
90,4048.21,4135.38,4049.74,3847.18,4379.49,4174.36,4566.15,4521.54,4288.21,3870.26,4233.33,4583.59,4348.72,4604.62,1692,1710,4.941,0,0,0,0,1,0,
91,4052.82,4137.95,4050.26,3847.69,4381.03,4174.36,4570.77,4528.72,4295.38,3865.64,4234.36,4587.69,4347.18,4607.69,1691,1712,4.95,0,0,0,0,1,0,
92,4050.26,4137.44,4050.77,3844.62,4380,4168.21,4565.13,4533.85,4293.33,3861.54,4228.21,4585.64,4340,4602.56,1693,1710,4.956,0,0,0,0,1,0,
93,4047.69,4135.38,4050.77,3845.13,4380.51,4167.69,4564.1,4528.72,4287.18,3860.51,4230.26,4583.59,4340,4601.03,1691,1711,4.965,0,0,0,0,1,0,
94,4055.9,4137.44,4053.33,3846.67,4380.51,4171.28,4564.62,4530.26,4292.82,3867.69,4232.82,4591.28,4346.67,4611.28,1694,1711,4.973,0,0,0,0,1,0,
95,4062.56,4139.49,4061.03,3847.69,4380.51,4169.23,4561.03,4540.51,4300,3877.44,4234.87,4600,4351.28,4615.38,1693,1710,4.981,0,0,0,0,1,0,
96,4059.49,4137.44,4060.51,3847.18,4380.51,4165.64,4560.51,4534.36,4288.21,3870.26,4231.79,4593.33,4344.62,4605.13,1693,1711,4.988,0,0,0,0,1,0,
97,4055.9,4136.92,4053.85,3847.18,4379.49,4168.21,4565.64,4526.15,4280.51,3856.92,4224.62,4583.08,4340.51,4599.49,1694,1710,4.995,0,0,0,0,1,0,
98,4059.49,4141.03,4054.87,3848.72,4387.18,4175.38,4569.74,4535.9,4294.87,3862.05,4226.15,4589.23,4350.77,4602.05,1693,1710,5.003,0,0,0,0,1,0,
99,4063.59,4142.56,4061.03,3850.77,4391.79,4176.92,4570.77,4540,4298.46,3866.15,4231.28,4597.44,4354.87,4603.08,1694,1709,5.011,0,0,0,0,1,0,
100,4057.95,4138.97,4060,3851.28,4380.51,4168.21,4570.26,4534.36,4288.72,3860,4234.36,4593.85,4345.64,4601.03,1694,1709,5.019,0,0,0,0,1,0,
101,4051.28,4136.92,4055.9,3850.26,4373.85,4164.1,4569.23,4535.38,4292.31,3861.03,4231.79,4587.69,4341.54,4600,1694,1707,5.028,0,0,0,0,1,0,
102,4049.74,4136.41,4050.77,3847.69,4380.51,4168.21,4568.21,4531.79,4295.9,3862.56,4220,4585.13,4340.51,4597.44,1693,1708,5.034,0,0,0,0,1,0,
103,4049.74,4135.38,4045.64,3845.13,4382.56,4167.69,4568.21,4521.54,4292.31,3863.59,4216.92,4584.1,4337.95,4594.36,1694,1708,5.044,0,0,0,0,1,0,
104,4049.74,4137.44,4047.18,3846.15,4378.97,4167.18,4567.69,4525.64,4296.92,3865.64,4227.69,4585.13,4343.08,4596.92,1692,1708,5.05,0,0,0,0,1,0,
105,4051.79,4139.49,4052.31,3847.69,4381.54,4170.77,4567.69,4539.49,4298.97,3861.03,4232.31,4587.18,4353.85,4600.51,1693,1709,5.075,0,0,0,0,1,0,
106,4052.82,4136.92,4051.28,3845.13,4379.49,4168.72,4565.64,4540,4297.44,3863.59,4229.74,4587.69,4352.31,4598.97,1692,1708,5.079,0,0,0,0,1,0,
107,4053.85,4135.9,4049.74,3844.1,4374.36,4167.69,4565.13,4537.44,4300.51,3879.49,4235.38,4587.18,4346.15,4599.49,1692,1710,5.079,0,0,0,0,1,0,
108,4058.46,4138.97,4051.79,3847.69,4373.85,4168.72,4566.67,4546.67,4304.1,3887.18,4235.38,4586.15,4349.74,4600.51,1692,1709,5.081,0,0,0,0,1,0,
109,4058.97,4140.51,4052.82,3848.72,4373.33,4158.46,4566.15,4548.21,4303.59,3875.9,4221.54,4585.64,4349.74,4594.87,1691,1711,5.09,0,0,0,0,1,0,
110,4057.44,4137.95,4051.79,3846.67,4374.87,4149.23,4565.64,4540.51,4300.51,3860.51,4218.97,4586.67,4343.08,4595.38,1691,1710,5.098,0,0,0,0,1,0,
111,4060.51,4137.95,4056.41,3848.72,4379.49,4159.49,4568.72,4545.13,4305.64,3862.05,4231.28,4589.74,4348.21,4602.56,1690,1712,5.105,0,0,0,0,1,0,
112,4061.54,4140,4059.49,3849.23,4380.51,4171.28,4571.79,4557.44,4314.87,3880,4237.44,4589.74,4353.85,4603.08,1692,1711,5.113,0,0,0,0,1,0,
113,4057.44,4140,4055.38,3845.13,4370.77,4168.72,4570.26,4553.33,4309.74,3881.54,4230.77,4587.18,4347.18,4600.51,1691,1710,5.12,0,0,0,0,1,0,
114,4055.9,4138.46,4050.26,3846.15,4366.67,4168.72,4567.18,4544.62,4299.49,3862.05,4227.69,4586.15,4344.62,4600.51,1693,1709,5.128,0,0,0,0,1,0,
115,4059.49,4139.49,4050.26,3850.77,4379.49,4171.28,4569.23,4550.77,4305.13,3862.05,4233.85,4589.74,4355.9,4601.54,1692,1710,5.137,0,0,0,0,1,0,
116,4061.54,4142.05,4053.85,3850.26,4387.69,4169.23,4569.23,4553.85,4313.33,3880,4236.92,4595.38,4363.59,4602.05,1693,1712,5.144,0,0,0,0,1,0,
117,4060.51,4140.51,4055.9,3847.69,4376.92,4168.21,4559.49,4543.59,4308.21,3882.05,4232.31,4596.92,4353.33,4604.1,1693,1710,5.153,0,0,0,0,1,0,
118,4060,4135.38,4056.41,3847.69,4370.77,4167.69,4554.36,4537.95,4305.64,3875.9,4230.26,4595.9,4343.59,4606.67,1693,1711,5.161,0,0,0,0,1,0,
119,4061.54,4142.05,4058.46,3853.33,4380.51,4166.67,4562.56,4544.1,4309.74,3878.97,4235.38,4598.46,4354.87,4608.72,1694,1709,5.168,0,0,0,0,1,0,
120,4062.56,4151.79,4062.05,3859.49,4383.59,4169.74,4571.28,4548.72,4304.62,3881.54,4236.41,4601.54,4366.15,4610.26,1693,1711,5.175,0,0,0,0,1,0,
121,4061.54,4143.59,4060.51,3856.92,4377.95,4172.31,4571.28,4548.72,4297.44,3875.9,4231.79,4596.92,4357.44,4609.74,1694,1710,5.184,0,0,0,0,1,0,
122,4059.49,4137.95,4057.44,3849.74,4378.97,4167.69,4567.69,4551.28,4295.38,3874.36,4233.33,4592.31,4353.33,4609.74,1694,1711,5.192,0,0,0,0,1,0,
123,4060,4152.31,4058.46,3850.26,4382.05,4166.15,4570.77,4552.31,4296.92,3877.44,4235.9,4595.9,4358.97,4612.31,1694,1712,5.2,0,0,0,0,1,0,
124,4060.51,4153.85,4059.49,3851.79,4375.38,4168.72,4570.77,4553.85,4304.1,3879.49,4234.36,4594.87,4353.33,4609.74,1693,1712,5.206,0,0,0,0,1,0,
125,4057.95,4136.92,4057.95,3849.23,4369.23,4169.23,4558.97,4553.85,4308.21,3882.05,4232.31,4586.67,4351.79,4603.08,1693,1711,5.215,0,0,0,0,1,0,
126,4056.92,4134.87,4057.95,3846.15,4375.9,4168.72,4555.38,4546.15,4298.97,3883.59,4232.31,4589.23,4361.03,4605.13,1693,1710,5.223,0,0,0,0,1,0,
127,4059.49,4143.08,4062.05,3851.79,4383.59,4168.72,4568.21,4540.51,4290.26,3871.28,4233.85,4600,4356.41,4611.28,1692,1709,5.23,0,0,0,0,1,0,
128,4060.51,4141.54,4063.59,3862.56,4377.44,4172.31,4571.79,4542.56,4291.79,3856.41,4232.82,4595.9,4346.15,4606.15,1691,1710,5.239,0,0,0,0,1,0,
0,4057.44,4135.38,4058.97,3856.41,4370.77,4167.69,4562.56,4540,4291.28,3867.69,4229.74,4586.15,4348.72,4598.46,1691,1709,5.247,0,0,0,0,1,0,
1,4052.82,4132.82,4057.44,3844.62,4376.92,4157.95,4561.03,4536.92,4289.74,3878.97,4229.74,4588.72,4353.33,4601.54,1691,1710,5.254,0,0,0,0,1,0,
2,4056.92,4140,4060.51,3854.36,4382.56,4161.54,4567.69,4539.49,4292.31,3864.62,4232.31,4597.44,4350.77,4609.74,1691,1710,5.262,0,0,0,0,1,0,
3,4063.59,4150.77,4063.08,3867.18,4383.08,4174.87,4570.77,4540.51,4294.87,3862.56,4230.77,4601.54,4350.77,4613.85,1691,1711,5.27,0,0,0,0,1,0,
4,4065.13,4151.79,4066.67,3862.56,4380.51,4174.87,4570.26,4543.08,4301.03,3883.59,4228.21,4599.49,4354.87,4614.87,1692,1709,5.278,0,0,0,0,1,0,
5,4068.72,4150.26,4069.23,3859.49,4374.87,4166.15,4568.21,4552.82,4304.62,3888.21,4238.97,4602.56,4362.05,4617.95,1692,1710,5.286,0,0,0,0,1,0,
6,4074.36,4155.38,4068.21,3866.15,4375.38,4169.74,4567.18,4556.41,4306.15,3882.05,4248.72,4608.72,4370.26,4620.51,1693,1710,5.293,0,0,0,0,1,0,
7,4071.79,4153.33,4068.21,3865.13,4383.08,4173.33,4567.18,4549.74,4303.59,3885.64,4240,4606.67,4364.62,4618.46,1692,1708,5.3,0,0,0,0,1,0,
8,4064.62,4140,4066.15,3852.31,4375.38,4159.49,4564.62,4548.72,4296.92,3884.1,4230.26,4598.46,4351.28,4615.9,1692,1709,5.308,0,0,0,0,1,0,
9,4064.1,4134.36,4062.05,3851.28,4363.08,4149.74,4560.51,4551.79,4298.46,3887.18,4237.95,4596.92,4352.82,4613.33,1693,1709,5.317,0,0,0,0,1,0,
10,4066.15,4143.08,4064.62,3856.92,4371.28,4160,4560,4547.18,4305.64,3895.9,4245.13,4602.56,4366.67,4615.9,1692,1709,5.325,0,0,0,0,1,0,
11,4069.74,4151.28,4068.72,3853.85,4385.13,4163.59,4557.95,4538.46,4295.9,3882.05,4242.56,4604.1,4368.72,4623.08,1692,1709,5.333,0,0,0,0,1,0,
12,4074.36,4152.31,4066.67,3852.31,4382.05,4151.28,4555.38,4536.41,4284.62,3857.95,4246.15,4603.08,4361.54,4625.13,1692,1710,5.339,0,0,0,0,1,0,
13,4076.92,4152.31,4070.26,3861.03,4376.92,4151.28,4561.03,4546.15,4294.36,3865.13,4248.21,4607.18,4362.56,4626.67,1692,1710,5.349,0,0,0,0,1,0,
14,4082.05,4155.38,4080,3866.15,4381.03,4165.13,4568.72,4554.87,4303.08,3897.44,4247.18,4617.44,4369.74,4632.82,1692,1711,5.356,0,0,0,0,1,0,
15,4084.62,4156.41,4080.51,3866.15,4385.64,4172.31,4569.74,4553.33,4298.97,3903.08,4249.23,4617.95,4371.28,4630.77,1693,1712,5.364,0,0,0,0,1,0,
16,4073.33,4151.28,4068.72,3860.51,4382.05,4171.28,4569.23,4544.1,4293.85,3877.95,4243.08,4600.51,4361.03,4618.97,1692,1712,5.372,0,0,0,0,1,0,
17,4063.08,4143.08,4062.05,3851.28,4375.38,4168.72,4569.23,4536.41,4291.79,3869.74,4230.26,4588.21,4350.26,4611.79,1693,1712,5.38,0,0,0,0,1,0,
18,4068.72,4142.56,4068.21,3854.36,4371.28,4167.18,4569.74,4541.54,4297.95,3887.18,4234.87,4595.9,4351.28,4618.46,1693,1711,5.387,0,0,0,0,1,0,
19,4076.41,4149.74,4075.9,3863.59,4369.74,4165.64,4573.33,4552.31,4304.62,3895.38,4250.77,4608.72,4358.46,4630.77,1692,1712,5.395,0,0,0,0,1,0,
20,4075.38,4151.28,4077.44,3860.51,4373.85,4165.64,4574.87,4554.87,4300,3893.33,4251.79,4612.82,4364.62,4632.31,1693,1710,5.403,0,0,0,0,1,0,
21,4075.38,4150.26,4075.38,3858.46,4381.54,4169.23,4571.79,4549.23,4294.87,3888.72,4247.69,4610.77,4369.23,4629.74,1691,1710,5.411,0,0,0,0,1,0,
22,4078.97,4150.77,4076.41,3864.1,4380,4171.28,4569.23,4549.74,4297.95,3881.54,4246.15,4607.18,4363.59,4632.31,1692,1711,5.418,0,0,0,0,1,0,
23,4075.9,4145.13,4076.92,3860.51,4372.31,4170.26,4569.74,4550.26,4296.92,3879.49,4238.46,4603.08,4351.79,4626.67,1692,1710,5.427,0,0,0,0,1,0,
24,4069.23,4137.44,4071.28,3849.23,4373.33,4169.23,4570.77,4547.69,4293.85,3878.46,4232.82,4600,4348.72,4613.85,1693,1711,5.435,0,0,0,0,1,0,
25,4065.64,4135.38,4065.64,3846.67,4376.92,4171.79,4572.82,4551.79,4294.36,3874.87,4234.87,4600.51,4352.31,4616.92,1691,1711,5.442,0,0,0,0,1,0,
26,4062.56,4135.9,4063.59,3846.67,4369.74,4172.82,4571.28,4555.38,4294.36,3878.46,4235.38,4597.95,4347.18,4620,1692,1710,5.449,0,0,0,0,1,0,
27,4057.44,4134.36,4058.97,3844.1,4361.54,4168.72,4568.72,4550.26,4292.82,3884.1,4229.23,4588.21,4340,4607.69,1692,1709,5.458,0,0,0,0,1,0,
28,4058.46,4134.87,4056.41,3846.15,4369.23,4165.64,4568.72,4548.72,4293.33,3884.1,4227.69,4581.03,4343.08,4605.13,1694,1710,5.466,0,0,0,0,1,0,
29,4067.18,4140,4065.13,3849.74,4376.92,4167.69,4571.28,4551.28,4296.41,3892.82,4238.97,4592.31,4350.26,4614.87,1694,1708,5.473,0,0,0,0,1,0,
30,4067.18,4141.03,4069.23,3850.26,4368.21,4169.23,4572.31,4544.62,4297.95,3899.49,4246.15,4600,4351.79,4615.9,1693,1712,5.48,0,0,0,0,1,0,
31,4060.51,4137.95,4061.03,3849.23,4365.64,4166.67,4571.28,4537.95,4295.9,3883.59,4240,4588.21,4351.28,4613.33,1694,1709,5.488,0,0,0,0,1,0,
32,4059.49,4143.08,4057.95,3848.72,4378.46,4167.69,4572.31,4540,4291.79,3867.18,4229.74,4584.1,4348.72,4614.87,1694,1709,5.496,0,0,0,0,1,0,
33,4064.1,4150.77,4063.59,3854.36,4382.56,4169.74,4572.82,4539.49,4293.33,3873.85,4230.77,4594.36,4349.23,4613.85,1694,1709,5.504,0,0,0,0,1,0,
34,4068.72,4151.79,4068.72,3861.03,4381.54,4170.77,4569.74,4541.54,4296.41,3892.31,4243.08,4599.49,4356.92,4614.36,1694,1709,5.511,0,0,0,0,1,0,
35,4070.77,4151.79,4068.21,3856.41,4385.13,4172.31,4569.23,4550.26,4295.38,3895.9,4246.67,4598.46,4359.49,4619.49,1693,1710,5.519,0,0,0,0,1,0,
36,4065.64,4145.64,4061.54,3848.72,4379.49,4172.31,4571.28,4554.36,4296.41,3889.23,4241.03,4597.95,4355.38,4617.44,1694,1709,5.528,0,0,0,0,1,0,
37,4063.59,4143.08,4058.97,3848.72,4375.38,4170.26,4572.82,4555.38,4302.05,3894.87,4241.54,4595.9,4359.49,4616.41,1693,1711,5.535,0,0,0,0,1,0,
38,4067.18,4147.18,4059.49,3850.77,4383.08,4169.23,4567.18,4549.74,4297.95,3894.36,4244.62,4591.28,4354.87,4616.92,1692,1711,5.544,0,0,0,0,1,0,
39,4060.51,4142.56,4051.28,3846.15,4379.49,4170.77,4559.49,4534.36,4285.64,3876.92,4230.77,4586.15,4338.97,4611.28,1691,1713,5.551,0,0,0,0,1,0,
40,4058.46,4139.49,4050.77,3844.1,4365.64,4167.69,4561.03,4535.38,4292.82,3883.08,4226.67,4588.21,4349.23,4613.33,1690,1712,5.559,0,0,0,0,1,0,
41,4073.85,4151.79,4064.1,3853.85,4371.79,4167.69,4569.74,4552.82,4307.18,3908.21,4245.13,4603.08,4369.74,4624.1,1690,1713,5.566,0,0,0,0,1,0,
42,4076.92,4158.97,4065.13,3862.56,4386.15,4177.44,4576.92,4555.38,4298.97,3904.1,4244.62,4605.13,4365.13,4622.56,1691,1712,5.574,0,0,0,0,1,0,
43,4065.64,4151.79,4056.41,3853.33,4381.03,4181.54,4575.9,4548.72,4292.82,3888.21,4230.77,4590.77,4355.38,4615.38,1688,1712,5.583,0,0,0,0,1,0,
44,4064.1,4145.64,4058.46,3842.05,4374.87,4176.41,4574.36,4553.33,4301.54,3892.31,4231.79,4588.21,4357.95,4615.38,1691,1712,5.59,0,0,0,0,1,0,
45,4065.64,4141.54,4061.54,3845.13,4381.03,4173.33,4573.33,4555.38,4306.67,3896.41,4239.49,4598.97,4358.97,4618.46,1690,1710,5.598,0,0,0,0,1,0,
46,4061.03,4138.97,4057.95,3847.18,4383.59,4173.33,4573.85,4551.79,4307.69,3892.31,4237.95,4601.03,4356.41,4617.44,1690,1710,5.605,0,0,0,0,1,0,
47,4057.95,4137.44,4055.9,3843.59,4382.56,4171.79,4576.92,4551.79,4303.08,3883.08,4230.26,4589.74,4346.67,4608.21,1691,1710,5.614,0,0,0,0,1,0,
48,4056.92,4134.36,4057.44,3842.56,4381.03,4173.33,4581.03,4552.31,4292.31,3874.36,4228.72,4586.15,4336.92,4600,1691,1710,5.622,0,0,0,0,1,0,
49,4060.51,4135.9,4061.03,3846.15,4372.31,4173.33,4581.54,4552.31,4293.33,3875.9,4234.87,4596.92,4340.51,4606.15,1692,1710,5.629,0,0,0,0,1,0,
50,4062.56,4136.92,4060,3847.18,4370.77,4169.23,4576.41,4550.77,4298.46,3876.41,4232.82,4600,4341.54,4612.31,1690,1710,5.638,0,0,0,0,1,0,
51,4063.08,4143.08,4063.08,3847.69,4383.08,4172.82,4578.97,4549.23,4294.36,3877.95,4224.1,4594.87,4339.49,4611.79,1692,1710,5.645,0,0,0,0,1,0,
52,4070.77,4150.26,4072.82,3854.87,4388.21,4175.9,4581.03,4549.23,4295.9,3886.67,4230.26,4599.49,4351.79,4613.85,1694,1710,5.653,0,0,0,0,1,0,
53,4071.79,4145.64,4072.31,3856.92,4380.51,4169.74,4580,4545.64,4300,3884.62,4236.41,4604.1,4356.92,4614.36,1693,1709,5.66,0,0,0,0,1,0,
54,4065.64,4145.13,4065.13,3849.74,4381.03,4169.74,4582.56,4543.59,4295.38,3876.41,4231.79,4597.95,4347.69,4612.31,1694,1710,5.668,0,0,0,0,1,0,
55,4072.82,4152.31,4066.15,3847.69,4386.15,4174.87,4581.03,4545.64,4293.85,3876.92,4233.33,4602.05,4349.23,4616.41,1695,1710,5.676,0,0,0,0,1,0,
56,4078.46,4146.15,4070.77,3851.28,4378.97,4171.79,4572.82,4546.15,4300,3886.15,4238.46,4610.77,4358.46,4618.97,1695,1710,5.684,0,0,0,0,1,0,
57,4068.72,4135.38,4065.64,3849.23,4373.33,4168.21,4569.74,4548.21,4308.72,3895.38,4241.03,4607.69,4358.46,4615.9,1695,1709,5.692,0,0,0,0,1,0,
58,4062.56,4139.49,4058.46,3848.72,4380.51,4171.28,4574.36,4552.82,4309.23,3890.26,4242.56,4601.03,4356.92,4617.44,1695,1710,5.699,0,0,0,0,1,0,
59,4067.69,4145.64,4059.49,3853.33,4384.62,4169.23,4572.82,4552.82,4303.08,3883.08,4236.92,4603.59,4358.97,4618.46,1695,1708,5.708,0,0,0,0,1,0,
60,4067.18,4141.54,4060.51,3852.31,4380.51,4168.72,4571.79,4552.31,4307.69,3891.28,4232.31,4603.59,4358.46,4612.31,1694,1709,5.715,0,0,0,0,1,0,
61,4060.51,4138.97,4054.36,3848.21,4385.13,4177.44,4574.87,4554.36,4313.33,3900.51,4233.85,4592.82,4353.85,4606.67,1694,1709,5.724,0,0,0,0,1,0,
62,4057.44,4137.95,4048.72,3844.1,4383.08,4175.9,4573.33,4547.69,4302.56,3888.72,4234.87,4588.21,4350.26,4608.21,1692,1710,5.731,0,0,0,0,1,0,
63,4062.05,4138.97,4050.77,3847.18,4369.23,4165.64,4570.77,4540,4294.87,3879.49,4235.9,4593.85,4352.82,4610.77,1694,1710,5.738,0,0,0,0,1,0,
64,4068.21,4145.13,4052.31,3855.38,4375.38,4169.23,4572.31,4538.97,4296.41,3883.08,4233.85,4594.87,4356.92,4610.77,1694,1709,5.747,0,0,0,0,1,0,
65,4068.21,4149.74,4052.31,3853.33,4392.31,4176.92,4572.82,4539.49,4295.38,3882.56,4228.72,4595.38,4360.51,4616.92,1693,1710,5.754,0,0,0,0,1,0,
66,4066.15,4148.21,4052.82,3845.13,4387.69,4171.28,4570.26,4540.51,4297.44,3884.1,4237.44,4600.51,4364.1,4621.03,1694,1709,5.763,0,0,0,0,1,0,
67,4069.23,4148.21,4057.95,3844.62,4375.38,4166.15,4570.26,4540,4302.56,3899.49,4249.74,4600.51,4366.67,4619.49,1693,1710,5.77,0,0,0,0,1,0,
68,4076.92,4153.33,4065.13,3850.26,4380.51,4172.31,4571.28,4541.54,4305.13,3917.44,4248.21,4603.08,4368.72,4626.67,1693,1709,5.778,0,0,0,0,1,0,
69,4078.97,4153.33,4067.18,3852.31,4384.1,4174.87,4570.77,4549.23,4309.23,3909.23,4240.51,4609.23,4364.1,4634.36,1694,1709,5.786,0,0,0,0,1,0,
70,4076.92,4150.77,4066.67,3851.28,4379.49,4169.74,4570.77,4556.41,4323.59,3896.41,4243.08,4608.21,4369.23,4632.82,1694,1708,5.793,0,0,0,0,1,0,
71,4077.95,4153.85,4068.21,3851.28,4381.03,4167.69,4571.28,4557.44,4334.36,3909.23,4255.9,4608.21,4383.08,4633.33,1692,1709,5.802,0,0,0,0,1,0,
72,4077.44,4152.82,4063.59,3849.23,4377.95,4168.21,4570.26,4555.38,4317.44,3909.23,4252.31,4607.18,4374.87,4628.72,1694,1709,5.809,0,0,0,0,1,0,
73,4072.82,4151.28,4059.49,3850.26,4369.74,4167.18,4569.74,4551.28,4295.9,3889.74,4235.38,4599.49,4353.33,4616.92,1692,1710,5.818,0,0,0,0,1,0,
74,4075.38,4153.85,4069.23,3862.56,4376.41,4175.38,4571.79,4551.79,4304.1,3898.46,4240.51,4602.05,4361.54,4621.03,1693,1711,5.824,0,0,0,0,1,0,
75,4083.08,4154.87,4075.9,3865.13,4388.72,4183.59,4574.36,4553.85,4317.44,3916.92,4253.85,4608.72,4377.44,4629.74,1693,1710,5.833,0,0,0,0,1,0,
76,4082.56,4152.31,4068.72,3851.28,4386.15,4178.46,4573.33,4550.26,4305.13,3900.51,4243.59,4602.56,4369.23,4623.08,1692,1711,5.841,0,0,0,0,1,0,
77,4077.95,4153.33,4065.64,3852.31,4378.46,4169.74,4570.77,4545.64,4294.87,3886.15,4236.41,4598.46,4364.1,4618.97,1693,1708,5.848,0,0,0,0,1,0,
78,4076.92,4155.9,4069.74,3864.62,4380.51,4168.72,4570.77,4546.67,4297.95,3897.44,4243.08,4603.08,4367.69,4627.18,1692,1710,5.856,0,0,0,0,1,0,
79,4075.9,4153.33,4067.69,3855.9,4383.08,4169.23,4568.72,4544.1,4295.38,3894.87,4234.36,4601.03,4359.49,4626.67,1693,1710,5.864,0,0,0,0,1,0,
80,4074.87,4150.26,4065.64,3844.62,4381.54,4168.72,4568.72,4544.1,4296.92,3887.69,4227.69,4598.46,4355.38,4622.05,1692,1711,5.872,0,0,0,0,1,0,
81,4076.41,4153.85,4071.28,3850.77,4383.08,4167.18,4578.46,4553.33,4305.13,3894.36,4245.64,4605.64,4365.13,4625.13,1692,1709,5.879,0,0,0,0,1,0,
82,4076.92,4152.82,4071.79,3852.82,4385.13,4171.79,4586.67,4553.85,4301.54,3898.46,4252.31,4607.69,4370.77,4624.62,1691,1711,5.888,0,0,0,0,1,0,
83,4071.28,4141.03,4062.56,3846.67,4381.03,4178.97,4584.62,4548.21,4294.36,3892.31,4235.38,4600.51,4356.41,4615.9,1692,1710,5.895,0,0,0,0,1,0,
84,4064.1,4134.36,4060,3847.69,4372.82,4177.44,4583.08,4548.21,4298.97,3894.87,4231.79,4596.92,4341.54,4611.79,1691,1710,5.903,0,0,0,0,1,0,
85,4063.59,4138.97,4066.67,3848.21,4370.26,4171.28,4583.08,4546.15,4307.69,3907.18,4242.56,4601.03,4350.77,4616.41,1692,1711,5.91,0,0,0,0,1,0,
86,4067.69,4137.95,4067.18,3845.13,4373.33,4169.23,4576.92,4540.51,4302.56,3907.18,4234.87,4602.56,4362.56,4618.46,1692,1709,5.919,0,0,0,0,1,0,
87,4066.67,4133.33,4060.51,3844.1,4375.38,4176.41,4571.28,4536.41,4284.62,3884.1,4215.38,4594.87,4349.74,4612.82,1691,1711,5.927,0,0,0,0,1,0,
88,4065.13,4136.41,4058.46,3845.13,4372.82,4183.59,4571.28,4534.36,4280.51,3869.74,4215.38,4589.23,4340,4611.28,1692,1709,5.934,0,0,0,0,1,0,
89,4070.26,4140.51,4063.08,3847.18,4372.31,4173.33,4571.79,4535.9,4295.38,3884.62,4229.74,4594.36,4350.77,4616.41,1692,1710,5.943,0,0,0,0,1,0,
90,4075.9,4141.03,4067.69,3847.18,4382.56,4167.18,4577.95,4542.56,4301.54,3896.41,4241.54,4602.05,4355.9,4618.46,1692,1709,5.951,0,0,0,0,1,0,
91,4076.41,4142.05,4067.69,3848.21,4385.64,4178.97,4583.08,4543.08,4294.36,3893.85,4244.1,4603.08,4350.77,4615.9,1692,1710,5.958,0,0,0,0,1,0,
92,4070.26,4139.49,4064.62,3848.21,4375.9,4181.03,4580.51,4539.49,4294.36,3898.97,4236.92,4597.95,4348.21,4614.87,1693,1710,5.965,0,0,0,0,1,0,
93,4065.64,4136.92,4061.03,3846.15,4374.36,4177.44,4580,4545.64,4300,3896.92,4230.77,4590.77,4352.31,4612.82,1692,1710,5.973,0,0,0,0,1,0,
94,4067.18,4138.46,4059.49,3846.15,4383.08,4182.56,4585.13,4548.72,4299.49,3882.56,4230.26,4589.74,4352.82,4606.15,1693,1710,5.982,0,0,0,0,1,0,
95,4067.69,4139.49,4059.49,3848.21,4383.08,4179.49,4582.56,4543.08,4303.59,3886.67,4229.74,4593.33,4344.1,4607.69,1692,1710,5.989,0,0,0,0,1,0,
96,4066.15,4138.97,4060.51,3847.69,4377.95,4176.41,4576.92,4543.08,4309.74,3902.05,4229.23,4595.38,4344.62,4614.87,1694,1713,5.998,0,0,0,0,1,0,
97,4071.79,4140.51,4063.59,3848.21,4380,4186.67,4583.59,4552.31,4310.26,3909.23,4234.87,4599.49,4358.46,4618.46,1694,1711,6.005,0,0,0,0,1,0,
98,4078.97,4138.97,4063.59,3846.15,4385.13,4188.72,4589.74,4554.36,4309.74,3913.33,4236.41,4602.05,4361.03,4615.38,1692,1713,6.013,0,0,0,0,1,0,
99,4076.41,4140.51,4061.03,3845.64,4388.21,4183.59,4586.15,4550.26,4308.21,3903.08,4234.36,4600.51,4352.82,4613.85,1694,1712,6.021,0,0,0,0,1,0,
100,4078.46,4151.28,4069.74,3853.33,4393.33,4183.59,4584.1,4552.82,4310.26,3890.77,4244.1,4602.05,4360,4620,1693,1713,6.034,0,0,0,0,1,0,
101,4084.1,4155.38,4077.95,3855.9,4393.85,4188.21,4586.67,4554.87,4314.36,3903.59,4253.85,4604.1,4370.77,4625.13,1693,1711,6.039,0,0,0,0,1,0,
102,4080,4150.77,4070.77,3850.77,4390.77,4184.1,4581.54,4550.77,4313.85,3915.38,4249.23,4601.54,4367.69,4619.49,1693,1711,6.044,0,0,0,0,1,0,
103,4075.38,4153.85,4064.1,3850.77,4388.21,4172.31,4573.33,4546.67,4306.15,3909.74,4243.08,4600.51,4364.1,4611.28,1693,1711,6.051,0,0,0,0,1,0,
104,4077.44,4157.95,4068.21,3852.82,4387.69,4174.36,4571.28,4546.67,4304.1,3910.26,4248.72,4602.05,4365.64,4616.41,1692,1710,6.059,0,0,0,0,1,0,
105,4075.9,4152.31,4068.72,3850.77,4387.69,4181.54,4572.31,4552.31,4311.28,3914.87,4252.31,4603.59,4364.62,4624.1,1692,1710,6.068,0,0,0,0,1,0,
106,4076.41,4151.28,4066.15,3850.77,4388.21,4179.49,4573.33,4553.85,4311.79,3911.28,4245.64,4602.56,4364.62,4619.49,1691,1711,6.075,0,0,0,0,1,0,
107,4082.05,4156.92,4067.18,3852.82,4391.28,4182.05,4578.46,4553.33,4310.77,3909.23,4244.1,4601.54,4367.69,4616.41,1691,1710,6.083,0,0,0,0,1,0,
108,4077.44,4151.28,4065.64,3849.23,4389.74,4188.21,4584.1,4553.85,4312.31,3906.67,4250.26,4600.51,4357.95,4617.44,1690,1711,6.09,0,0,0,0,1,0,
109,4064.62,4136.92,4059.49,3844.62,4384.1,4186.67,4586.15,4548.21,4305.13,3893.85,4241.03,4590.77,4342.56,4606.15,1690,1711,6.098,0,0,0,0,1,0,
110,4064.62,4132.31,4057.95,3844.1,4383.08,4183.08,4582.05,4539.49,4293.85,3889.23,4225.13,4585.13,4344.62,4595.9,1690,1711,6.106,0,0,0,0,1,0,
111,4074.87,4143.59,4063.08,3848.21,4384.1,4184.1,4574.87,4537.44,4292.82,3903.59,4231.79,4595.38,4357.95,4609.23,1690,1710,6.114,0,0,0,0,1,0,
112,4077.95,4153.33,4066.15,3848.21,4381.03,4182.56,4571.28,4540.51,4297.95,3911.79,4248.21,4603.59,4363.08,4620.51,1690,1710,6.123,0,0,0,0,1,0,
113,4071.79,4151.79,4061.54,3847.69,4377.44,4174.87,4571.79,4545.13,4299.49,3901.54,4245.64,4597.95,4358.97,4612.31,1692,1710,6.129,0,0,0,0,1,0,
114,4072.82,4151.28,4061.03,3851.28,4378.97,4165.13,4571.28,4550.77,4305.13,3902.05,4240,4597.95,4359.49,4608.21,1692,1710,6.138,0,0,0,0,1,0,
115,4085.13,4154.36,4068.21,3852.31,4381.54,4172.31,4570.77,4554.87,4312.31,3921.03,4248.21,4607.69,4364.62,4621.03,1693,1711,6.145,0,0,0,0,1,0,
116,4088.21,4153.85,4070.26,3850.77,4382.05,4185.64,4572.82,4555.9,4313.85,3924.62,4246.15,4608.72,4368.72,4628.21,1694,1708,6.153,0,0,0,0,1,0,
117,4074.87,4150.77,4062.56,3849.74,4381.03,4182.56,4577.95,4554.36,4303.08,3909.74,4236.92,4600,4367.18,4619.49,1693,1710,6.161,0,0,0,0,1,0,
118,4072.31,4152.31,4061.54,3850.77,4384.1,4178.46,4582.05,4551.28,4294.87,3904.62,4242.56,4598.97,4363.08,4615.38,1694,1710,6.169,0,0,0,0,1,0,
119,4087.18,4154.36,4070.77,3856.41,4390.77,4185.64,4586.67,4553.33,4302.56,3912.82,4255.38,4610.77,4366.67,4629.23,1693,1711,6.176,0,0,0,0,1,0,
120,4090.77,4154.36,4070.77,3861.03,4389.74,4187.69,4590.26,4555.9,4304.1,3915.38,4253.85,4611.79,4373.33,4634.36,1693,1711,6.185,0,0,0,0,1,0,
121,4077.95,4153.33,4060,3853.85,4386.15,4186.15,4588.72,4552.31,4294.36,3910.77,4244.62,4602.05,4371.28,4620,1693,1710,6.193,0,0,0,0,1,0,
122,4074.36,4152.82,4057.95,3845.13,4387.18,4189.74,4584.62,4553.85,4304.1,3911.28,4245.13,4600,4366.15,4616.92,1692,1711,6.2,0,0,0,0,1,0,
123,4077.95,4152.31,4061.54,3852.31,4387.69,4188.72,4586.67,4554.87,4313.85,3910.77,4248.72,4602.56,4365.13,4624.62,1691,1711,6.209,0,0,0,0,1,0,
124,4078.46,4153.33,4061.54,3861.54,4388.21,4184.1,4586.15,4549.23,4301.03,3907.18,4241.03,4601.03,4362.05,4622.56,1691,1712,6.216,0,0,0,0,1,0,
125,4077.95,4156.92,4062.05,3862.05,4386.15,4184.1,4576.92,4550.26,4299.49,3915.9,4231.79,4601.03,4361.03,4615.9,1690,1711,6.225,0,0,0,0,1,0,
126,4076.92,4156.41,4063.08,3858.97,4382.05,4183.59,4570.77,4552.31,4314.87,3928.21,4234.36,4600.51,4367.18,4617.44,1690,1713,6.231,0,0,0,0,1,0,
127,4074.36,4152.82,4058.46,3854.36,4383.59,4183.08,4571.28,4543.59,4314.87,3922.05,4237.44,4592.31,4364.1,4617.44,1689,1711,6.24,0,0,0,0,1,0,
128,4072.82,4151.79,4053.33,3848.72,4387.18,4184.1,4572.31,4537.95,4301.54,3906.67,4233.85,4587.69,4353.33,4613.33,1688,1712,6.248,0,0,0,0,1,0,
0,4068.72,4152.82,4052.82,3847.18,4390.26,4184.62,4572.31,4540.51,4295.38,3898.46,4232.31,4588.72,4352.31,4612.31,1689,1711,6.255,0,0,0,0,1,0,
1,4066.67,4153.85,4053.33,3848.72,4393.85,4183.59,4571.79,4538.97,4295.38,3893.85,4233.33,4589.23,4352.31,4613.33,1687,1711,6.263,0,0,0,0,1,0,
2,4067.18,4151.79,4055.38,3846.15,4388.72,4181.03,4574.87,4537.44,4296.92,3896.92,4232.82,4591.79,4348.21,4610.77,1688,1712,6.27,0,0,0,0,1,0,
3,4062.56,4143.08,4055.9,3845.64,4382.05,4181.54,4582.05,4541.54,4298.46,3905.64,4231.28,4593.33,4348.72,4603.08,1688,1712,6.278,0,0,0,0,1,0,
4,4057.44,4137.95,4050.77,3844.1,4385.13,4187.18,4587.18,4540,4294.87,3897.44,4229.23,4587.18,4347.18,4598.46,1689,1712,6.286,0,0,0,0,1,0,
5,4058.46,4136.92,4048.72,3837.44,4387.18,4182.56,4585.13,4540,4294.87,3884.62,4230.77,4583.59,4341.03,4600,1689,1712,6.294,0,0,0,0,1,0,
6,4065.13,4137.95,4054.87,3838.46,4379.49,4171.28,4584.1,4548.72,4303.08,3897.95,4234.36,4593.33,4343.59,4603.08,1690,1711,6.302,0,0,0,0,1,0,
7,4071.28,4146.15,4061.03,3845.64,4377.95,4174.87,4587.18,4556.92,4314.36,3911.28,4231.28,4603.59,4354.36,4610.26,1690,1710,6.31,0,0,0,0,1,0,
8,4075.38,4154.87,4066.15,3846.67,4384.62,4186.15,4585.13,4554.36,4311.28,3897.95,4231.79,4602.56,4357.95,4616.41,1691,1711,6.318,0,0,0,0,1,0,
9,4082.05,4153.85,4071.28,3848.21,4384.62,4182.05,4576.41,4543.59,4300,3897.95,4240.51,4600,4357.95,4619.49,1693,1709,6.326,0,0,0,0,1,0,
10,4079.49,4151.28,4067.18,3852.31,4383.59,4173.33,4569.23,4535.38,4296.41,3912.31,4240.51,4600.51,4357.44,4617.44,1692,1711,6.34,0,0,0,0,1,0,
11,4067.69,4154.36,4057.95,3849.23,4391.79,4177.44,4569.23,4533.85,4300.51,3901.03,4230.26,4599.49,4351.28,4607.18,1694,1710,6.341,0,0,0,0,1,0,
12,4071.28,4155.9,4062.56,3855.38,4400.51,4186.67,4572.82,4538.46,4307.18,3897.44,4231.28,4599.49,4353.33,4606.15,1693,1710,6.35,0,0,0,0,1,0,
13,4080.51,4155.38,4071.28,3864.62,4396.92,4182.56,4576.92,4545.64,4307.18,3913.85,4240.51,4601.03,4359.49,4616.41,1693,1711,6.357,0,0,0,0,1,0,
14,4072.82,4152.82,4068.72,3853.33,4390.77,4170.26,4580.51,4551.79,4306.15,3904.62,4242.05,4601.03,4354.87,4617.44,1692,1709,6.365,0,0,0,0,1,0,
15,4072.82,4155.9,4068.21,3847.69,4390.77,4173.33,4584.62,4561.54,4313.33,3896.41,4252.82,4610.77,4361.54,4620,1692,1711,6.373,0,0,0,0,1,0,
16,4091.79,4163.59,4077.95,3862.05,4388.21,4188.72,4588.21,4572.82,4325.64,3922.56,4266.15,4621.54,4383.08,4635.38,1693,1710,6.381,0,0,0,0,1,0,
17,4091.28,4160,4077.95,3863.59,4382.56,4188.21,4589.74,4571.28,4328.72,3931.28,4256.41,4612.82,4385.13,4632.82,1692,1711,6.389,0,0,0,0,1,0,
18,4074.36,4150.77,4068.21,3848.21,4381.54,4181.03,4583.59,4557.44,4322.56,3922.05,4243.08,4600.51,4370.77,4617.95,1693,1712,6.396,0,0,0,0,1,0,
19,4073.33,4149.74,4065.64,3843.59,4385.13,4182.05,4575.9,4553.33,4320,3930.77,4249.23,4603.08,4370.26,4622.05,1692,1712,6.405,0,0,0,0,1,0,
20,4076.92,4150.26,4067.18,3845.64,4386.15,4176.92,4571.79,4555.38,4315.38,3919.49,4252.31,4607.69,4370.26,4624.1,1694,1710,6.412,0,0,0,0,1,0,
21,4074.36,4149.74,4069.23,3847.69,4389.74,4166.67,4568.72,4551.28,4313.85,3897.95,4244.62,4609.74,4365.13,4618.46,1693,1711,6.42,0,0,0,0,1,0,
22,4083.59,4155.38,4076.41,3853.33,4392.31,4167.69,4568.21,4553.85,4320,3918.46,4250.26,4615.9,4370.26,4629.74,1696,1710,6.428,0,0,0,0,1,0,
23,4090.77,4155.9,4077.95,3852.31,4377.44,4168.72,4567.69,4554.87,4316.92,3932.82,4251.28,4612.31,4369.74,4637.44,1694,1710,6.435,0,0,0,0,1,0,
24,4078.46,4147.69,4068.21,3845.64,4368.72,4167.69,4572.31,4548.21,4306.15,3908.72,4234.36,4597.95,4357.44,4620,1695,1710,6.443,0,0,0,0,1,0,
25,4070.26,4149.23,4064.1,3846.67,4381.03,4176.92,4583.59,4550.77,4309.23,3900,4232.82,4598.46,4353.85,4613.85,1694,1709,6.45,0,0,0,0,1,0,
26,4074.87,4154.36,4068.21,3850.26,4387.69,4185.13,4589.74,4554.87,4316.92,3912.82,4248.72,4609.23,4356.41,4626.67,1694,1710,6.458,0,0,0,0,1,0,
27,4079.49,4152.31,4068.21,3846.15,4378.46,4183.08,4583.08,4546.67,4309.23,3909.23,4249.23,4606.67,4360,4627.69,1693,1710,6.467,0,0,0,0,1,0,
28,4080.51,4151.28,4067.18,3847.18,4377.95,4182.05,4574.87,4547.18,4309.74,3907.69,4240,4600.51,4367.69,4623.59,1692,1711,6.475,0,0,0,0,1,0,
29,4083.08,4154.36,4073.85,3853.33,4385.13,4177.44,4572.31,4553.33,4319.49,3917.95,4245.64,4610.26,4370.26,4627.69,1691,1710,6.483,0,0,0,0,1,0,
30,4084.62,4153.33,4078.46,3852.31,4383.59,4166.15,4570.26,4544.1,4313.85,3912.31,4254.87,4617.44,4369.23,4631.28,1690,1711,6.49,0,0,0,0,1,0,
31,4085.13,4152.31,4072.82,3848.72,4381.54,4170.26,4571.28,4535.38,4306.15,3909.74,4252.82,4611.79,4372.82,4630.77,1690,1710,6.498,0,0,0,0,1,0,
32,4083.08,4153.85,4067.18,3847.69,4384.1,4185.13,4572.31,4540,4309.23,3920,4244.1,4606.67,4368.72,4628.72,1691,1710,6.506,0,0,0,0,1,0,
33,4079.49,4152.82,4067.69,3846.67,4383.08,4183.59,4572.82,4540,4311.28,3908.72,4242.56,4604.1,4358.46,4623.08,1691,1710,6.514,0,0,0,0,1,0,
34,4077.95,4152.31,4069.23,3846.67,4383.59,4176.41,4577.95,4543.59,4312.82,3893.85,4248.72,4601.54,4357.44,4618.46,1692,1710,6.521,0,0,0,0,1,0,
35,4074.36,4152.82,4066.67,3847.69,4385.13,4178.46,4583.08,4549.74,4316.41,3913.33,4238.46,4598.46,4356.41,4614.36,1692,1710,6.53,0,0,0,0,1,0,
36,4072.82,4152.82,4064.62,3848.72,4377.44,4185.64,4585.64,4547.69,4314.36,3932.31,4230.26,4597.44,4351.28,4616.92,1692,1710,6.536,0,0,0,0,1,0,
37,4079.49,4152.82,4071.79,3848.72,4374.36,4184.62,4586.15,4549.23,4309.74,3915.38,4237.44,4602.56,4357.95,4625.64,1692,1710,6.544,0,0,0,0,1,0,
38,4082.56,4151.28,4074.36,3845.64,4378.97,4173.33,4580,4554.87,4309.74,3905.64,4237.44,4605.64,4364.62,4624.62,1693,1710,6.553,0,0,0,0,1,0,
39,4077.95,4151.79,4067.18,3844.1,4381.54,4168.72,4571.28,4547.69,4310.26,3915.9,4237.95,4602.56,4359.49,4622.05,1694,1709,6.56,0,0,0,0,1,0,
40,4077.44,4153.85,4064.62,3845.13,4382.56,4175.9,4571.28,4537.95,4309.74,3904.62,4245.64,4600,4354.87,4624.1,1692,1710,6.569,0,0,0,0,1,0,
41,4078.46,4151.28,4068.21,3845.64,4381.54,4175.38,4573.85,4540.51,4309.74,3889.23,4240,4601.54,4357.95,4622.05,1694,1709,6.576,0,0,0,0,1,0,
42,4076.92,4148.21,4067.69,3844.62,4377.44,4166.15,4569.74,4541.54,4308.72,3905.64,4233.33,4603.59,4360,4621.54,1692,1708,6.584,0,0,0,0,1,0,
43,4084.1,4150.77,4071.28,3846.15,4377.44,4168.21,4567.69,4540,4308.72,3923.59,4246.15,4609.23,4365.64,4632.82,1693,1708,6.592,0,0,0,0,1,0,
44,4089.23,4152.82,4074.87,3847.69,4377.44,4174.36,4569.74,4541.54,4308.72,3916.41,4255.38,4612.82,4370.77,4636.92,1692,1706,6.599,0,0,0,0,1,0,
45,4078.46,4149.23,4067.18,3846.67,4370.77,4168.72,4569.23,4540.51,4303.08,3910.26,4244.62,4604.1,4361.54,4623.59,1693,1708,6.608,0,0,0,0,1,0,
46,4071.28,4148.72,4061.54,3847.18,4373.33,4164.1,4567.69,4540,4296.92,3909.23,4232.82,4597.95,4354.36,4614.87,1693,1708,6.616,0,0,0,0,1,0,
47,4076.92,4153.33,4066.67,3849.23,4378.46,4169.74,4568.72,4538.97,4293.85,3897.95,4230.77,4600.51,4359.49,4617.95,1693,1710,6.623,0,0,0,0,1,0,
48,4080.51,4154.87,4071.28,3848.72,4378.97,4171.79,4570.26,4537.95,4295.38,3898.46,4241.03,4603.08,4360,4622.56,1693,1710,6.631,0,0,0,0,1,0,
49,4081.03,4153.85,4069.74,3848.21,4378.46,4169.23,4570.26,4540,4302.56,3909.23,4248.21,4603.59,4357.95,4626.67,1693,1712,6.638,0,0,0,0,1,0,
50,4084.62,4157.95,4069.23,3853.33,4375.38,4176.92,4569.74,4541.54,4309.23,3912.31,4248.21,4605.64,4364.62,4629.23,1694,1711,6.647,0,0,0,0,1,0,
51,4084.62,4160.51,4067.18,3853.33,4375.9,4184.62,4569.74,4538.97,4308.21,3913.85,4245.64,4604.62,4369.23,4624.62,1692,1712,6.654,0,0,0,0,1,0,
52,4076.41,4152.31,4062.56,3845.64,4376.41,4174.36,4569.23,4534.87,4296.41,3905.13,4233.85,4595.9,4356.41,4613.33,1694,1712,6.661,0,0,0,0,1,0,
53,4070.77,4145.64,4064.62,3843.08,4371.28,4164.1,4568.72,4534.36,4290.26,3890.26,4227.69,4595.9,4342.05,4612.82,1692,1712,6.669,0,0,0,0,1,0,
54,4076.92,4151.79,4072.31,3849.23,4371.79,4169.23,4571.79,4542.56,4304.1,3903.08,4244.1,4608.21,4352.82,4623.08,1692,1713,6.678,0,0,0,0,1,0,
55,4084.1,4157.44,4071.79,3852.82,4377.95,4173.85,4573.33,4550.26,4316.92,3929.74,4251.28,4615.38,4368.21,4625.64,1692,1711,6.686,0,0,0,0,1,0,
56,4084.1,4153.85,4068.72,3848.21,4373.33,4171.79,4572.31,4553.33,4314.87,3931.28,4237.95,4610.77,4363.59,4619.49,1692,1712,6.693,0,0,0,0,1,0,
57,4082.05,4152.31,4074.87,3847.18,4368.21,4171.79,4572.31,4552.82,4307.18,3916.41,4233.85,4607.18,4355.38,4618.97,1692,1711,6.702,0,0,0,0,1,0,
58,4083.08,4158.97,4077.95,3855.38,4375.9,4171.79,4573.33,4544.62,4298.46,3904.1,4244.1,4611.28,4357.44,4626.67,1691,1710,6.71,0,0,0,0,1,0,
59,4089.23,4167.69,4075.9,3862.05,4383.08,4174.36,4572.31,4543.08,4296.92,3905.64,4247.18,4615.9,4362.05,4631.79,1691,1709,6.717,0,0,0,0,1,0,
60,4094.87,4171.28,4077.44,3862.56,4385.64,4183.59,4571.28,4551.79,4303.59,3922.56,4237.95,4618.46,4363.59,4632.31,1690,1710,6.725,0,0,0,0,1,0,
61,4092.82,4167.69,4077.95,3861.03,4388.21,4189.23,4571.79,4548.72,4303.08,3927.69,4235.9,4617.95,4365.13,4631.79,1691,1708,6.733,0,0,0,0,1,0,
62,4085.64,4160.51,4073.85,3854.36,4385.64,4179.49,4572.31,4537.95,4293.33,3912.31,4245.13,4611.79,4365.64,4632.82,1690,1709,6.74,0,0,0,0,1,0,
63,4086.15,4155.38,4071.28,3853.85,4379.49,4171.28,4571.79,4540.51,4293.85,3908.72,4250.26,4609.23,4365.64,4632.82,1691,1710,6.747,0,0,0,0,1,0,
64,4090.26,4155.38,4069.23,3858.46,4380,4181.03,4571.79,4543.08,4297.95,3917.44,4242.56,4609.74,4364.1,4627.18,1691,1710,6.756,0,0,0,0,1,0,
65,4084.1,4156.41,4066.67,3851.28,4384.1,4186.67,4572.82,4537.44,4294.36,3911.79,4235.38,4607.69,4363.59,4624.1,1691,1710,6.763,0,0,0,0,1,0,
66,4081.54,4155.9,4069.74,3845.13,4378.97,4177.95,4573.33,4536.92,4292.31,3902.05,4244.62,4609.23,4362.56,4631.28,1692,1709,6.771,0,0,0,0,1,0,
67,4088.72,4156.41,4073.33,3855.38,4374.36,4169.74,4572.31,4538.97,4296.41,3909.23,4250.77,4615.9,4362.05,4635.38,1692,1711,6.78,0,0,0,0,1,0,
68,4087.69,4155.9,4069.23,3863.08,4380,4168.72,4571.79,4539.49,4298.97,3916.41,4239.49,4609.74,4365.13,4628.72,1693,1710,6.788,0,0,0,0,1,0,
69,4081.03,4154.87,4064.62,3862.05,4386.15,4174.87,4572.31,4537.95,4292.82,3915.9,4235.38,4600.51,4368.72,4626.15,1692,1711,6.794,0,0,0,0,1,0,
70,4083.59,4156.41,4067.69,3859.49,4383.59,4184.1,4570.77,4537.44,4291.79,3911.28,4246.15,4602.05,4367.18,4630.77,1693,1711,6.803,0,0,0,0,1,0,
71,4080.51,4148.72,4067.18,3850.26,4375.38,4188.21,4571.79,4538.97,4296.92,3899.49,4235.9,4602.56,4357.95,4626.15,1691,1710,6.81,0,0,0,0,1,0,
72,4070.26,4140,4060,3844.62,4370.26,4186.15,4574.87,4540,4300,3899.49,4217.95,4598.46,4348.21,4614.87,1692,1710,6.818,0,0,0,0,1,0,
