eeg data - format version 0.2: COUNTER,AF3,F7,F3, FC5, T7, P7, O1, O2,P8, T8, FC6, F4,F8, AF4,GYROX, GYROY, TIMESTAMP, FUNC_ID, FUNC_VALUE, MARKER, SYNC_SIGNAL, Cognitiv Action, Cognitiv Power,
53,4488.72,4045.64,4397.95,4183.08,4090.26,3588.21,4448.21,4475.9,4752.82,4553.33,4606.67,4386.67,4370.77,4031.79,1656,1692,0.09,0,0,0,0,1,0,
54,4492.31,4045.13,4397.95,4185.64,4108.21,3598.97,4458.46,4477.95,4757.95,4563.08,4601.54,4386.67,4369.74,4030.26,1655,1693,0.098,0,0,0,0,1,0,
55,4491.28,4044.62,4392.82,4184.1,4098.46,3606.67,4452.31,4479.49,4761.03,4555.38,4593.85,4379.49,4367.18,4027.18,1656,1693,0.106,0,0,0,0,1,0,
56,4480,4040.51,4385.13,4179.49,4092.31,3598.46,4442.05,4472.82,4749.23,4533.33,4587.69,4368.21,4356.41,4020.51,1655,1692,0.113,0,0,0,0,1,0,
57,4465.64,4028.72,4375.38,4172.31,4093.33,3588.72,4436.41,4464.1,4736.41,4522.56,4581.54,4357.44,4343.59,4010.26,1655,1693,0.121,0,0,0,0,1,0,
58,4458.97,4017.95,4365.64,4156.92,4073.33,3588.72,4430.77,4453.33,4728.21,4522.05,4565.13,4345.64,4333.33,3999.49,1656,1690,0.129,0,0,0,0,1,0,
59,4456.41,4016.41,4362.05,4156.92,4063.08,3585.64,4423.59,4440.51,4715.38,4510.26,4548.72,4335.9,4321.03,3990.26,1655,1690,0.138,0,0,0,0,1,0,
60,4455.38,4017.44,4365.64,4168.72,4085.64,3584.62,4426.67,4445.64,4717.44,4503.08,4556.92,4346.15,4322.56,3995.38,1655,1689,0.145,0,0,0,0,1,0,
61,4455.9,4017.95,4368.21,4162.56,4091.28,3588.21,4433.85,4464.1,4735.9,4520.51,4573.85,4360.51,4335.9,4002.56,1655,1690,0.153,0,0,0,0,1,0,
62,4455.9,4024.1,4364.1,4153.85,4068.72,3578.46,4431.79,4460,4732.31,4526.15,4570.26,4351.79,4332.82,3995.9,1655,1691,0.16,0,0,0,0,1,0,
63,4464.62,4037.44,4367.69,4164.62,4067.69,3569.23,4425.13,4447.18,4716.41,4511.79,4563.59,4347.18,4321.03,3996.41,1654,1691,0.168,0,0,0,0,1,0,
64,4481.54,4060,4383.08,4181.54,4091.79,3579.49,4427.69,4455.9,4725.64,4517.44,4571.28,4362.56,4328.72,4013.33,1654,1693,0.176,0,0,0,0,1,0,
65,4490.77,4078.97,4391.28,4192.31,4102.56,3592.31,4435.9,4464.1,4737.95,4529.74,4570.77,4366.67,4334.87,4022.05,1654,1692,0.184,0,0,0,0,1,0,
66,4492.82,4077.95,4384.62,4192.82,4089.23,3590.77,4432.82,4458.97,4727.69,4514.36,4555.9,4356.41,4318.46,4011.28,1654,1693,0.193,0,0,0,0,1,0,
67,4490.77,4066.15,4374.87,4184.62,4075.9,3587.69,4426.15,4453.33,4717.44,4497.44,4551.79,4350.77,4303.59,4002.05,1654,1693,0.199,0,0,0,0,1,0,
68,4484.1,4064.62,4370.77,4178.97,4086.15,3590.26,4427.18,4450.26,4719.49,4506.67,4552.31,4347.69,4303.59,4001.03,1652,1695,0.208,0,0,0,0,1,0,
69,4471.79,4060,4366.67,4173.33,4093.33,3588.21,4428.21,4446.15,4717.44,4509.74,4540.51,4340,4302.56,3993.85,1654,1694,0.215,0,0,0,0,1,0,
70,4460.51,4045.13,4364.1,4166.15,4085.13,3586.15,4425.64,4444.1,4710.26,4492.82,4531.28,4334.36,4293.33,3978.46,1652,1695,0.224,0,0,0,0,1,0,
71,4459.49,4043.08,4363.08,4165.64,4078.46,3581.54,4425.13,4448.21,4710.26,4486.15,4535.9,4333.85,4288.21,3970.26,1654,1694,0.231,0,0,0,0,1,0,
72,4461.03,4050.77,4365.13,4172.31,4074.36,3578.46,4427.69,4457.44,4715.9,4492.82,4540,4342.05,4289.74,3974.36,1652,1693,0.239,0,0,0,0,1,0,
73,4462.05,4052.31,4373.33,4181.54,4078.46,3584.1,4429.23,4462.56,4723.08,4492.31,4542.56,4351.79,4293.85,3983.08,1653,1694,0.246,0,0,0,0,1,0,
74,4466.67,4053.85,4377.44,4185.13,4093.33,3589.23,4428.21,4461.54,4730.26,4497.95,4550.26,4351.79,4299.49,3989.74,1654,1692,0.254,0,0,0,0,1,0,
75,4476.41,4061.03,4372.31,4182.05,4091.79,3589.23,4429.74,4462.56,4736.41,4518.46,4554.36,4351.28,4305.64,3991.28,1653,1692,0.263,0,0,0,0,1,0,
76,4478.46,4060.51,4370.26,4181.03,4082.56,3590.77,4434.36,4463.59,4732.31,4523.59,4553.33,4352.31,4304.62,3992.31,1653,1692,0.27,0,0,0,0,1,0,
77,4468.21,4053.33,4371.28,4178.46,4091.28,3589.23,4431.79,4455.38,4718.97,4504.1,4544.62,4347.69,4296.92,3990.26,1654,1692,0.278,0,0,0,0,1,0,
78,4465.13,4049.74,4366.67,4172.31,4096.41,3583.59,4426.15,4444.62,4710.77,4489.74,4535.9,4341.03,4291.28,3985.64,1655,1691,0.285,0,0,0,0,1,0,
79,4473.33,4047.18,4363.59,4169.74,4091.28,3583.59,4428.72,4442.05,4710.26,4488.21,4541.03,4340,4291.79,3984.1,1655,1692,0.293,0,0,0,0,1,0,
80,4475.38,4045.13,4366.67,4171.28,4088.72,3587.69,4432.82,4445.64,4711.28,4486.67,4546.67,4343.08,4294.36,3982.56,1656,1691,0.301,0,0,0,0,1,0,
81,4472.82,4044.62,4365.64,4172.82,4087.18,3591.28,4428.72,4446.15,4710.77,4487.69,4537.95,4340.51,4288.72,3974.36,1655,1692,0.309,0,0,0,0,1,0,
82,4470.77,4045.13,4358.46,4170.26,4078.97,3585.64,4426.67,4442.56,4709.23,4489.23,4531.79,4331.28,4280,3969.74,1657,1691,0.317,0,0,0,0,1,0,
83,4462.05,4042.05,4350.77,4166.67,4073.33,3575.9,4427.18,4442.05,4709.23,4484.1,4533.85,4323.59,4281.03,3975.9,1655,1690,0.325,0,0,0,0,1,0,
84,4462.05,4044.62,4356.92,4169.23,4086.67,3583.08,4428.21,4450.77,4722.05,4496.41,4541.54,4330.26,4295.38,3986.15,1656,1691,0.333,0,0,0,0,1,0,
85,4475.9,4053.85,4367.69,4174.87,4098.97,3590.77,4428.21,4462.56,4737.44,4524.1,4555.38,4346.15,4309.23,3994.87,1655,1690,0.34,0,0,0,0,1,0,
86,4479.49,4051.28,4368.21,4171.79,4089.74,3577.95,4418.97,4460,4731.28,4522.56,4560.51,4351.28,4306.15,3996.41,1655,1691,0.348,0,0,0,0,1,0,
87,4477.95,4049.74,4371.79,4171.79,4084.1,3567.69,4410.77,4448.72,4719.49,4501.03,4554.36,4351.28,4303.08,3998.46,1655,1690,0.356,0,0,0,0,1,0,
88,4486.67,4058.97,4384.62,4184.1,4092.82,3572.31,4412.82,4445.64,4717.44,4504.62,4553.85,4359.49,4311.28,4008.72,1654,1691,0.364,0,0,0,0,1,0,
89,4494.36,4057.95,4386.67,4188.72,4087.18,3572.82,4414.36,4446.15,4716.41,4507.69,4555.9,4363.08,4309.23,4004.62,1654,1690,0.371,0,0,0,0,1,0,
90,4489.23,4045.13,4375.9,4175.38,4073.33,3569.23,4414.87,4445.64,4713.85,4493.33,4551.79,4353.85,4296.41,3989.74,1654,1691,0.379,0,0,0,0,1,0,
91,4476.92,4041.54,4369.23,4165.13,4075.38,3574.87,4423.08,4451.28,4715.38,4495.9,4547.69,4347.69,4291.79,3991.79,1655,1689,0.387,0,0,0,0,1,0,
92,4473.85,4044.62,4364.62,4166.67,4083.59,3586.15,4430.26,4458.97,4722.56,4508.72,4551.28,4349.23,4294.36,4000,1653,1689,0.395,0,0,0,0,1,0,
93,4481.03,4046.15,4361.54,4169.74,4092.31,3588.72,4428.72,4460.51,4731.79,4511.28,4555.38,4347.18,4300,3995.9,1655,1688,0.403,0,0,0,0,1,0,
94,4477.44,4043.59,4362.05,4167.69,4095.38,3580.51,4424.62,4457.44,4734.36,4507.69,4547.69,4341.03,4302.56,3988.72,1654,1688,0.411,0,0,0,0,1,0,
95,4470.77,4045.64,4364.1,4170.77,4089.23,3580.51,4420.51,4459.49,4732.82,4501.03,4541.03,4340.51,4300.51,3986.67,1655,1688,0.418,0,0,0,0,1,0,
96,4484.62,4055.9,4368.21,4183.59,4090.26,3586.15,4418.97,4461.03,4733.33,4500.51,4550.26,4346.15,4309.74,3995.38,1655,1686,0.426,0,0,0,0,1,0,
97,4496.41,4059.49,4373.85,4190.77,4101.54,3587.18,4423.59,4460,4732.31,4516.92,4564.62,4351.79,4323.08,4005.64,1655,1688,0.435,0,0,0,0,1,0,
98,4484.62,4056.92,4372.82,4185.13,4100.51,3586.15,4423.59,4454.87,4726.15,4526.67,4561.54,4349.74,4313.85,3996.92,1656,1687,0.442,0,0,0,0,1,0,
99,4473.85,4055.38,4360,4175.9,4086.67,3577.95,4412.31,4446.15,4718.97,4508.72,4543.59,4335.38,4290.26,3982.56,1656,1689,0.45,0,0,0,0,1,0,
100,4474.36,4052.31,4352.82,4169.23,4088.72,3570.77,4408.21,4438.97,4713.33,4492.31,4534.36,4327.69,4281.54,3984.1,1656,1690,0.457,0,0,0,0,1,0,
101,4480,4050.77,4362.05,4174.36,4102.56,3580,4421.03,4442.05,4716.41,4499.49,4543.08,4337.95,4291.79,3985.13,1655,1691,0.466,0,0,0,0,1,0,
102,4484.1,4052.31,4369.23,4183.08,4097.95,3590.26,4430.26,4451.28,4725.64,4510.77,4554.87,4346.15,4299.49,3982.05,1655,1691,0.473,0,0,0,0,1,0,
103,4479.49,4048.72,4364.1,4177.44,4084.1,3586.67,4426.67,4461.03,4730.77,4503.08,4553.33,4341.54,4294.87,3988.21,1654,1692,0.481,0,0,0,0,1,0,
104,4477.44,4048.72,4362.05,4168.72,4086.15,3586.15,4426.67,4472.31,4737.95,4502.56,4552.82,4340.51,4297.95,3994.87,1653,1693,0.489,0,0,0,0,1,0,
105,4486.15,4053.33,4367.69,4172.82,4094.87,3589.74,4434.36,4480,4750.26,4522.05,4557.95,4346.15,4310.77,3994.36,1653,1693,0.498,0,0,0,0,1,0,
106,4483.08,4046.67,4361.03,4174.36,4087.18,3588.72,4434.36,4481.03,4752.31,4532.31,4557.44,4341.54,4310.26,3987.18,1654,1692,0.504,0,0,0,0,1,0,
107,4463.08,4035.9,4349.23,4161.03,4076.92,3586.67,4427.69,4475.9,4740,4520.51,4554.36,4333.33,4300.51,3976.92,1652,1693,0.513,0,0,0,0,1,0,
108,4455.38,4031.28,4347.69,4154.36,4078.46,3581.03,4426.15,4466.15,4733.33,4507.69,4556.92,4333.33,4297.44,3973.85,1652,1692,0.52,0,0,0,0,1,0,
109,4465.64,4032.82,4351.79,4163.59,4074.36,3573.85,4425.64,4457.95,4732.82,4507.69,4555.38,4336.92,4296.41,3978.46,1652,1693,0.529,0,0,0,0,1,0,
110,4473.85,4045.64,4357.44,4173.85,4079.49,3579.49,4425.64,4459.49,4731.28,4509.23,4549.74,4341.03,4297.95,3985.64,1652,1692,0.536,0,0,0,0,1,0,
111,4476.92,4058.46,4360,4174.36,4098.46,3584.62,4427.18,4463.59,4734.36,4503.59,4550.26,4345.13,4301.03,3989.23,1651,1692,0.544,0,0,0,0,1,0,
112,4476.41,4055.38,4356.92,4172.82,4100,3582.05,4423.59,4460,4732.82,4498.97,4552.31,4343.08,4296.92,3985.64,1652,1691,0.551,0,0,0,0,1,0,
113,4478.46,4052.31,4361.54,4182.05,4090.77,3585.13,4419.49,4457.95,4730.26,4504.1,4553.33,4345.64,4294.36,3985.64,1650,1690,0.559,0,0,0,0,1,0,
114,4480,4054.87,4367.18,4185.64,4087.18,3583.08,4417.44,4460,4733.33,4509.23,4555.38,4351.28,4297.44,3988.72,1651,1691,0.567,0,0,0,0,1,0,
115,4476.41,4049.74,4361.03,4175.38,4085.64,3574.36,4416.41,4461.03,4733.33,4504.62,4555.38,4347.18,4295.9,3984.62,1651,1689,0.575,0,0,0,0,1,0,
116,4477.95,4045.64,4360.51,4169.23,4087.69,3581.54,4422.05,4461.54,4731.28,4503.08,4553.85,4345.13,4296.92,3983.59,1649,1690,0.583,0,0,0,0,1,0,
117,4479.49,4047.18,4366.67,4173.33,4089.23,3590.77,4428.21,4460.51,4731.79,4504.62,4553.85,4347.69,4301.03,3990.26,1651,1688,0.59,0,0,0,0,1,0,
118,4475.38,4040,4362.05,4171.79,4086.15,3585.13,4428.72,4458.46,4731.79,4503.59,4552.31,4343.08,4297.95,3989.74,1650,1689,0.598,0,0,0,0,1,0,
119,4474.87,4036.92,4358.46,4170.26,4086.67,3586.15,4432.31,4467.18,4735.38,4504.62,4552.82,4341.03,4295.38,3987.18,1649,1690,0.606,0,0,0,0,1,0,
120,4472.31,4038.46,4356.41,4169.74,4084.1,3592.82,4435.38,4474.87,4740.51,4508.21,4553.85,4340,4295.9,3984.1,1649,1692,0.614,0,0,0,0,1,0,
121,4460.51,4025.64,4343.08,4155.9,4073.33,3588.72,4427.69,4465.64,4738.97,4510.26,4550.26,4330.77,4293.33,3973.33,1650,1692,0.622,0,0,0,0,1,0,
122,4455.38,4016.41,4337.44,4152.82,4075.38,3586.15,4424.1,4460.51,4737.95,4507.69,4551.79,4328.72,4292.82,3968.21,1649,1692,0.63,0,0,0,0,1,0,
123,4462.56,4030.77,4348.21,4167.69,4089.23,3587.18,4429.23,4464.62,4737.95,4504.62,4558.46,4335.38,4296.41,3973.33,1651,1692,0.637,0,0,0,0,1,0,
124,4466.67,4044.1,4353.33,4171.28,4094.36,3587.18,4429.23,4462.56,4733.85,4508.21,4551.28,4334.36,4294.36,3972.31,1650,1688,0.645,0,0,0,0,1,0,
125,4468.72,4044.1,4351.79,4168.72,4092.31,3588.21,4429.74,4457.44,4728.72,4507.18,4542.56,4332.31,4291.28,3970.26,1651,1688,0.653,0,0,0,0,1,0,
126,4474.87,4051.79,4354.87,4180,4093.85,3590.26,4432.31,4456.92,4728.21,4494.87,4552.31,4337.95,4294.87,3978.46,1651,1683,0.661,0,0,0,0,1,0,
127,4478.46,4062.56,4358.97,4191.28,4097.95,3590.26,4431.28,4463.59,4732.82,4495.9,4558.46,4342.56,4297.44,3987.69,1649,1682,0.669,0,0,0,0,1,0,
128,4478.46,4057.44,4360.51,4182.56,4097.95,3590.77,4431.28,4473.33,4738.46,4513.33,4552.31,4342.05,4294.87,3990.77,1651,1678,0.676,0,0,0,0,1,0,
0,4478.97,4048.72,4359.49,4171.79,4091.28,3590.77,4431.28,4471.79,4738.46,4511.79,4554.36,4342.56,4296.41,3990.77,1649,1676,0.684,0,0,0,0,1,0,
1,4479.49,4050.77,4357.95,4175.9,4084.1,3587.69,4428.72,4460.51,4735.38,4506.15,4560,4344.62,4303.08,3990.26,1650,1675,0.692,0,0,0,0,1,0,
2,4478.46,4053.33,4357.95,4176.92,4083.08,3585.13,4426.67,4457.44,4733.85,4515.38,4555.9,4342.56,4304.62,3988.72,1649,1675,0.7,0,0,0,0,1,0,
3,4476.41,4048.72,4356.92,4170.26,4088.21,3585.64,4426.67,4463.59,4735.38,4515.38,4554.36,4341.03,4304.62,3990.77,1650,1676,0.709,0,0,0,0,1,0,
4,4475.9,4045.13,4356.41,4172.31,4094.36,3589.23,4432.31,4470.26,4744.1,4507.69,4558.46,4348.21,4307.69,3994.87,1648,1678,0.716,0,0,0,0,1,0,
5,4474.87,4046.15,4358.97,4175.38,4095.9,3592.31,4441.03,4474.36,4746.15,4509.23,4557.44,4352.31,4310.26,3990.26,1648,1680,0.723,0,0,0,0,1,0,
6,4472.82,4045.13,4360,4168.72,4087.18,3592.31,4440,4472.82,4738.97,4507.69,4556.41,4345.13,4303.59,3977.95,1647,1679,0.731,0,0,0,0,1,0,
7,4470.77,4041.03,4356.41,4166.15,4081.54,3590.77,4432.31,4470.77,4736.41,4503.59,4555.9,4338.97,4295.38,3975.38,1646,1682,0.739,0,0,0,0,1,0,
8,4473.33,4043.08,4356.41,4171.28,4093.85,3591.28,4431.79,4472.31,4739.49,4508.21,4557.95,4344.62,4300,3981.54,1646,1682,0.747,0,0,0,0,1,0,
9,4477.44,4046.15,4358.97,4172.82,4100,3590.77,4433.33,4471.79,4740.51,4511.79,4556.41,4346.67,4305.64,3978.97,1645,1684,0.755,0,0,0,0,1,0,
10,4468.21,4040,4354.36,4169.74,4083.59,3588.72,4428.21,4465.13,4736.41,4507.18,4544.1,4333.85,4292.82,3971.28,1646,1685,0.762,0,0,0,0,1,0,
11,4455.38,4037.44,4349.23,4170.26,4077.44,3587.18,4425.13,4455.38,4730.26,4505.13,4537.44,4324.1,4280.51,3968.72,1645,1687,0.77,0,0,0,0,1,0,
12,4459.49,4049.74,4355.9,4179.49,4096.92,3588.72,4428.72,4459.49,4733.85,4505.13,4550.77,4334.36,4290.26,3974.36,1645,1688,0.778,0,0,0,0,1,0,
13,4476.92,4061.54,4366.67,4186.67,4112.31,3590.26,4431.28,4469.74,4745.13,4507.18,4565.13,4349.74,4303.08,3986.15,1645,1690,0.786,0,0,0,0,1,0,
14,4489.23,4060.51,4367.69,4187.69,4110.26,3589.23,4429.23,4465.64,4739.49,4507.18,4568.72,4352.82,4304.62,3993.33,1646,1692,0.794,0,0,0,0,1,0,
15,4487.69,4058.97,4365.64,4188.21,4100,3589.74,4426.67,4457.44,4728.72,4503.59,4566.67,4349.23,4303.59,3989.23,1646,1695,0.802,0,0,0,0,1,0,
16,4479.49,4061.03,4367.18,4187.69,4104.1,3591.28,4428.72,4458.97,4732.82,4510.77,4559.49,4350.26,4305.13,3985.13,1647,1697,0.809,0,0,0,0,1,0,
17,4476.41,4057.44,4367.69,4184.1,4110.77,3589.23,4430.77,4463.08,4736.92,4517.95,4555.9,4352.31,4304.1,3985.64,1649,1698,0.817,0,0,0,0,1,0,
18,4473.85,4048.21,4365.64,4182.05,4094.87,3586.67,4428.72,4460,4732.82,4510.26,4556.41,4349.74,4300.51,3985.64,1649,1701,0.825,0,0,0,0,1,0,
19,4477.95,4048.21,4366.67,4183.59,4087.69,3589.23,4428.72,4460,4734.36,4509.74,4557.44,4348.21,4304.1,3986.15,1651,1701,0.834,0,0,0,0,1,0,
20,4485.64,4054.87,4372.31,4186.67,4103.08,3590.77,4433.33,4467.69,4738.97,4514.36,4563.59,4353.85,4309.23,3987.69,1651,1702,0.841,0,0,0,0,1,0,
21,4483.08,4052.82,4374.87,4187.18,4102.56,3589.23,4435.38,4468.21,4737.95,4509.74,4565.64,4359.49,4308.72,3988.72,1653,1701,0.849,0,0,0,0,1,0,
22,4479.49,4048.21,4371.79,4183.08,4084.1,3587.69,4432.31,4462.05,4734.36,4509.74,4556.92,4357.44,4306.67,3989.23,1652,1701,0.856,0,0,0,0,1,0,
23,4491.79,4050.77,4370.77,4182.56,4089.74,3588.21,4431.79,4460,4733.85,4512.31,4555.9,4354.87,4310.26,3990.77,1654,1702,0.864,0,0,0,0,1,0,
24,4494.36,4052.31,4373.33,4185.64,4109.23,3589.23,4432.31,4464.1,4735.38,4505.13,4559.49,4353.33,4315.9,3995.38,1655,1700,0.872,0,0,0,0,1,0,
25,4475.9,4049.74,4367.69,4186.15,4108.21,3586.67,4425.13,4457.44,4729.74,4504.1,4552.31,4344.62,4306.67,3988.21,1655,1700,0.88,0,0,0,0,1,0,
26,4470.26,4048.72,4357.44,4184.1,4094.87,3586.67,4423.08,4449.23,4722.05,4509.74,4549.23,4338.46,4295.9,3972.82,1655,1699,0.888,0,0,0,0,1,0,
27,4481.54,4052.31,4357.95,4182.56,4093.33,3588.72,4425.64,4450.77,4719.49,4505.13,4557.95,4343.08,4303.59,3976.41,1655,1699,0.895,0,0,0,0,1,0,
28,4488.72,4057.44,4366.15,4185.13,4104.62,3586.67,4420.51,4451.28,4720.51,4502.05,4557.95,4347.69,4313.33,3990.77,1656,1697,0.903,0,0,0,0,1,0,
29,4489.23,4061.03,4368.21,4188.21,4109.74,3585.13,4418.97,4453.33,4726.15,4514.87,4553.33,4347.69,4314.36,3992.31,1658,1696,0.911,0,0,0,0,1,0,
30,4488.21,4061.03,4365.64,4185.64,4105.64,3587.69,4426.15,4457.95,4733.33,4522.56,4560.51,4351.79,4318.97,3988.21,1658,1695,0.919,0,0,0,0,1,0,
31,4489.23,4061.54,4370.77,4185.13,4104.1,3588.21,4429.23,4460,4735.9,4517.44,4570.77,4358.46,4328.21,3991.79,1659,1694,0.927,0,0,0,0,1,0,
32,4491.28,4062.56,4375.38,4187.18,4106.67,3587.18,4428.72,4458.97,4735.38,4520,4568.21,4355.38,4326.67,3994.87,1659,1692,0.935,0,0,0,0,1,0,
33,4487.69,4057.44,4368.21,4188.21,4111.79,3590.77,4431.28,4460.51,4737.44,4523.59,4559.49,4347.69,4319.49,3987.69,1660,1691,0.942,0,0,0,0,1,0,
34,4474.87,4044.62,4356.92,4182.56,4102.56,3590.26,4428.21,4458.46,4733.85,4509.74,4552.82,4342.05,4310.26,3972.82,1662,1689,0.95,0,0,0,0,1,0,
35,4467.69,4039.49,4354.36,4171.79,4086.67,3585.64,4426.15,4454.87,4730.77,4504.62,4550.77,4340,4306.15,3969.74,1662,1688,0.958,0,0,0,0,1,0,
36,4480,4047.18,4359.49,4171.28,4095.9,3588.72,4433.33,4458.97,4736.41,4523.08,4555.38,4346.67,4318.46,3986.15,1663,1687,0.966,0,0,0,0,1,0,
37,4486.15,4051.79,4364.62,4183.08,4104.62,3593.33,4434.36,4461.03,4737.95,4528.72,4556.92,4354.87,4326.15,3994.36,1663,1688,0.974,0,0,0,0,1,0,
38,4481.03,4050.77,4367.69,4187.18,4093.85,3591.79,4428.21,4458.46,4732.82,4521.03,4555.38,4352.82,4323.08,3990.77,1665,1685,0.981,0,0,0,0,1,0,
39,4487.18,4056.92,4368.72,4182.56,4096.92,3587.18,4425.64,4457.44,4733.33,4527.18,4558.46,4349.23,4324.1,3991.28,1665,1688,0.989,0,0,0,0,1,0,
40,4489.74,4062.56,4362.56,4183.08,4101.03,3587.18,4427.18,4458.97,4736.92,4526.67,4558.46,4349.23,4324.1,3991.28,1667,1689,0.997,0,0,0,0,1,0,
41,4477.44,4060.51,4359.49,4184.62,4093.33,3592.31,4427.69,4457.44,4733.33,4510.26,4558.97,4347.18,4322.56,3988.72,1667,1689,1.005,0,0,0,0,1,0,
42,4477.44,4056.92,4366.15,4184.1,4097.95,3590.26,4426.15,4455.38,4730.26,4506.67,4566.67,4350.26,4325.13,3988.21,1668,1689,1.013,0,0,0,0,1,0,
43,4492.31,4063.08,4373.85,4191.79,4108.72,3585.64,4427.18,4460,4734.87,4524.62,4570.26,4358.46,4327.69,3991.79,1668,1689,1.021,0,0,0,0,1,0,
44,4492.31,4069.74,4374.87,4200,4103.59,3596.41,4431.79,4463.59,4736.92,4539.49,4566.15,4361.54,4328.72,3998.97,1668,1691,1.031,0,0,0,0,1,0,
45,4488.21,4068.72,4378.97,4198.46,4104.1,3605.13,4433.85,4462.56,4735.38,4536.92,4566.15,4363.59,4335.9,4004.1,1669,1691,1.036,0,0,0,0,1,0,
46,4495.38,4070.77,4384.62,4198.97,4112.82,3593.33,4428.72,4464.1,4740.51,4530.26,4572.82,4369.23,4337.44,4006.67,1668,1692,1.044,0,0,0,0,1,0,
47,4494.36,4072.82,4382.56,4200,4108.21,3585.13,4426.15,4465.13,4745.13,4528.21,4571.28,4366.15,4329.74,4006.67,1668,1692,1.052,0,0,0,0,1,0,
48,4483.08,4063.08,4374.87,4192.82,4104.62,3588.72,4427.18,4461.03,4738.46,4527.69,4560,4353.33,4325.64,3994.36,1668,1695,1.06,0,0,0,0,1,0,
49,4472.82,4049.23,4365.64,4182.05,4105.64,3591.28,4428.72,4458.46,4731.28,4524.62,4552.82,4342.05,4317.95,3976.92,1669,1693,1.068,0,0,0,0,1,0,
50,4469.23,4044.62,4357.95,4173.33,4106.67,3595.9,4434.87,4463.59,4734.36,4521.54,4552.82,4337.44,4307.69,3975.9,1666,1694,1.075,0,0,0,0,1,0,
51,4472.31,4045.13,4358.97,4173.85,4108.72,3606.67,4444.1,4473.85,4737.95,4522.05,4551.79,4342.05,4309.23,3985.64,1666,1695,1.084,0,0,0,0,1,0,
52,4476.92,4048.21,4365.13,4183.08,4109.74,3604.1,4443.08,4474.87,4736.41,4518.46,4551.79,4348.21,4317.95,3988.21,1664,1695,1.091,0,0,0,0,1,0,
53,4476.41,4051.79,4368.72,4186.15,4101.54,3592.82,4433.33,4466.15,4734.87,4516.41,4556.41,4351.28,4318.97,3987.18,1663,1698,1.099,0,0,0,0,1,0,
54,4479.49,4050.77,4366.67,4180.51,4093.85,3587.18,4428.72,4460,4734.87,4522.56,4556.41,4351.79,4315.38,3989.23,1662,1696,1.107,0,0,0,0,1,0,
55,4489.23,4049.74,4366.67,4181.54,4097.95,3586.15,4427.69,4461.03,4736.41,4526.15,4552.82,4349.74,4316.41,3989.74,1660,1697,1.115,0,0,0,0,1,0,
56,4490.26,4052.82,4367.18,4186.15,4101.03,3585.64,4424.1,4460.51,4738.46,4522.05,4554.87,4350.26,4317.95,3987.69,1659,1696,1.122,0,0,0,0,1,0,
57,4479.49,4057.95,4365.64,4185.64,4100.51,3585.64,4423.08,4458.46,4736.41,4523.08,4558.97,4351.28,4319.49,3986.15,1657,1697,1.131,0,0,0,0,1,0,
58,4474.36,4055.9,4365.64,4181.03,4101.03,3587.69,4427.18,4449.74,4733.33,4522.56,4556.41,4348.21,4320.51,3984.1,1657,1696,1.138,0,0,0,0,1,0,
59,4474.87,4045.64,4363.08,4173.85,4101.54,3586.67,4426.67,4440.51,4729.23,4509.74,4550.77,4343.08,4316.41,3981.03,1655,1696,1.146,0,0,0,0,1,0,
60,4476.92,4044.62,4358.97,4173.85,4104.62,3585.64,4424.1,4448.21,4729.23,4509.23,4550.26,4346.15,4313.33,3983.08,1655,1695,1.155,0,0,0,0,1,0,
61,4478.97,4052.31,4362.56,4179.49,4114.87,3597.44,4434.87,4463.59,4736.41,4524.62,4555.38,4352.31,4321.03,3988.72,1653,1693,1.161,0,0,0,0,1,0,
62,4476.41,4051.28,4368.21,4183.08,4110.77,3602.56,4443.59,4464.1,4736.92,4528.72,4553.85,4350.26,4325.13,3988.21,1654,1692,1.169,0,0,0,0,1,0,
63,4476.92,4045.13,4366.15,4184.62,4088.21,3592.31,4440.51,4459.49,4732.82,4517.95,4551.79,4348.21,4318.46,3985.13,1652,1691,1.178,0,0,0,0,1,0,
64,4486.15,4046.67,4367.18,4185.13,4087.69,3592.31,4440.51,4466.67,4738.46,4516.92,4561.54,4353.85,4319.49,3988.72,1652,1692,1.185,0,0,0,0,1,0,
65,4492.31,4052.31,4375.38,4186.15,4116.92,3607.18,4445.13,4477.44,4751.79,4534.36,4568.72,4360,4327.18,3994.87,1652,1691,1.193,0,0,0,0,1,0,
66,4489.74,4052.31,4377.44,4187.69,4128.21,3605.64,4439.49,4478.97,4753.33,4541.03,4564.1,4361.54,4331.28,3993.33,1650,1692,1.2,0,0,0,0,1,0,
67,4479.49,4049.74,4367.69,4186.15,4103.59,3589.74,4428.72,4470.26,4742.05,4523.08,4556.41,4351.28,4325.64,3986.67,1651,1690,1.209,0,0,0,0,1,0,
68,4474.36,4049.74,4358.46,4183.08,4087.18,3583.59,4425.13,4460,4732.31,4513.85,4552.82,4339.49,4316.41,3985.13,1650,1690,1.216,0,0,0,0,1,0,
69,4483.59,4050.77,4361.54,4183.08,4094.87,3586.67,4427.18,4458.46,4732.31,4523.08,4549.23,4343.08,4314.87,3984.62,1649,1688,1.224,0,0,0,0,1,0,
70,4493.85,4057.95,4370.26,4186.67,4110.26,3590.26,4432.31,4464.62,4738.97,4525.64,4554.36,4353.33,4323.59,3985.64,1649,1687,1.233,0,0,0,0,1,0,
71,4491.28,4062.05,4371.28,4188.72,4114.36,3592.31,4433.33,4466.15,4741.54,4522.56,4562.56,4354.87,4331.79,3992.82,1649,1685,1.24,0,0,0,0,1,0,
72,4491.28,4055.38,4366.67,4189.23,4108.72,3589.23,4428.72,4459.49,4736.92,4523.59,4561.54,4352.31,4330.26,3995.9,1648,1686,1.248,0,0,0,0,1,0,
73,4490.77,4051.79,4362.56,4185.64,4108.72,3585.13,4426.67,4458.46,4734.87,4520,4553.85,4349.23,4320,3987.69,1648,1687,1.255,0,0,0,0,1,0,
74,4482.56,4056.41,4361.54,4185.13,4105.13,3594.36,4430.77,4463.08,4740,4517.44,4552.82,4347.18,4315.9,3986.15,1647,1688,1.263,0,0,0,0,1,0,
75,4485.13,4058.97,4366.15,4194.36,4103.08,3603.59,4434.87,4464.1,4743.59,4523.08,4561.03,4351.79,4325.64,3996.41,1647,1691,1.271,0,0,0,0,1,0,
76,4489.23,4058.46,4365.64,4193.85,4107.69,3591.79,4430.77,4459.49,4738.97,4527.69,4560.51,4349.74,4330.26,3996.41,1648,1688,1.279,0,0,0,0,1,0,
77,4478.97,4054.36,4359.49,4182.05,4103.08,3581.54,4425.64,4460,4738.97,4528.21,4554.36,4344.1,4324.62,3988.21,1647,1689,1.286,0,0,0,0,1,0,
78,4474.87,4046.67,4357.44,4180.51,4092.82,3587.18,4425.64,4463.59,4744.1,4526.67,4556.92,4346.15,4325.64,3988.72,1649,1688,1.294,0,0,0,0,1,0,
79,4478.97,4044.1,4358.97,4186.15,4090.26,3580.51,4424.1,4458.46,4737.44,4521.03,4551.28,4343.59,4322.05,3989.23,1650,1689,1.302,0,0,0,0,1,0,
80,4473.33,4043.59,4356.92,4185.13,4086.67,3568.72,4421.03,4452.31,4724.62,4516.92,4541.54,4334.87,4313.85,3983.08,1650,1691,1.31,0,0,0,0,1,0,
81,4476.41,4044.1,4356.41,4182.56,4091.79,3580.51,4425.64,4455.38,4728.72,4518.46,4547.69,4337.44,4317.44,3983.59,1651,1691,1.318,0,0,0,0,1,0,
82,4488.72,4050.26,4358.97,4187.18,4112.82,3592.82,4431.79,4461.54,4738.46,4522.56,4556.41,4343.59,4325.13,3989.23,1652,1692,1.326,0,0,0,0,1,0,
83,4485.13,4051.28,4358.46,4191.28,4102.05,3580.51,4426.15,4455.38,4730.77,4518.97,4552.31,4341.03,4322.56,3989.23,1651,1692,1.333,0,0,0,0,1,0,
84,4475.38,4044.1,4355.9,4189.23,4081.03,3570.26,4419.49,4444.1,4718.46,4510.26,4553.33,4340,4316.41,3987.18,1652,1693,1.341,0,0,0,0,1,0,
85,4475.9,4041.54,4352.82,4182.56,4098.46,3574.87,4419.49,4443.08,4718.97,4505.13,4551.79,4338.97,4312.82,3980,1652,1695,1.35,0,0,0,0,1,0,
86,4474.36,4044.1,4353.85,4181.03,4113.33,3576.92,4418.46,4443.59,4719.49,4505.64,4538.46,4335.9,4308.21,3973.85,1653,1695,1.358,0,0,0,0,1,0,
87,4474.87,4049.23,4360,4190.77,4101.54,3578.46,4418.46,4442.05,4720,4510.77,4541.54,4341.03,4310.26,3981.54,1652,1696,1.365,0,0,0,0,1,0,
88,4488.72,4057.44,4366.15,4198.46,4102.05,3588.72,4425.13,4450.26,4730.26,4518.46,4555.38,4350.77,4321.03,3991.79,1654,1695,1.372,0,0,0,0,1,0,
89,4491.79,4058.97,4368.72,4192.82,4107.18,3592.31,4431.28,4460,4738.97,4527.69,4557.44,4352.31,4327.18,3991.79,1654,1696,1.38,0,0,0,0,1,0,
90,4478.97,4045.64,4361.54,4183.08,4099.49,3577.44,4422.05,4453.33,4732.31,4524.1,4550.26,4342.56,4320.51,3987.18,1655,1696,1.388,0,0,0,0,1,0,
91,4472.82,4037.95,4350.26,4181.03,4101.54,3574.36,4413.33,4444.1,4724.62,4507.18,4544.1,4333.33,4309.74,3978.97,1654,1697,1.396,0,0,0,0,1,0,
92,4473.33,4044.1,4350.26,4184.62,4105.13,3587.18,4422.05,4446.15,4730.26,4505.64,4540,4335.9,4307.69,3974.36,1656,1699,1.404,0,0,0,0,1,0,
93,4473.33,4046.67,4357.95,4185.64,4099.49,3583.59,4426.67,4447.69,4731.28,4512.82,4541.03,4343.59,4309.74,3979.49,1655,1699,1.412,0,0,0,0,1,0,
94,4474.36,4042.05,4357.95,4183.59,4096.92,3570.26,4417.44,4445.64,4723.59,4506.67,4543.08,4343.08,4310.77,3986.15,1656,1700,1.419,0,0,0,0,1,0,
95,4473.33,4043.08,4357.44,4182.05,4095.38,3569.23,4411.28,4444.1,4718.97,4503.08,4538.97,4336.92,4311.28,3984.1,1656,1697,1.427,0,0,0,0,1,0,
96,4472.82,4045.13,4363.59,4187.18,4095.38,3574.36,4415.9,4442.56,4721.03,4517.44,4540.51,4339.49,4309.74,3984.1,1656,1698,1.435,0,0,0,0,1,0,
97,4476.41,4043.08,4366.15,4190.77,4092.82,3577.44,4422.05,4447.69,4726.15,4525.64,4549.23,4347.18,4309.74,3988.72,1657,1695,1.443,0,0,0,0,1,0,
98,4480,4046.15,4364.62,4185.64,4093.33,3585.13,4425.13,4457.44,4732.31,4520,4553.85,4351.28,4314.36,3990.77,1657,1695,1.451,0,0,0,0,1,0,
99,4486.67,4052.82,4365.64,4184.1,4107.18,3590.26,4423.59,4460.51,4735.9,4520.51,4554.36,4349.23,4321.54,3990.77,1657,1697,1.459,0,0,0,0,1,0,
100,4487.18,4048.21,4361.03,4186.15,4113.33,3583.59,4415.9,4456.92,4733.33,4524.62,4549.23,4342.56,4319.49,3988.21,1657,1697,1.466,0,0,0,0,1,0,
101,4478.46,4042.56,4355.9,4185.64,4106.15,3581.54,4416.41,4456.41,4732.31,4525.13,4545.13,4341.54,4312.82,3987.69,1657,1697,1.474,0,0,0,0,1,0,
102,4480,4049.23,4362.05,4185.13,4098.97,3585.13,4422.56,4458.46,4733.33,4524.62,4551.79,4348.72,4318.46,3990.77,1656,1695,1.482,0,0,0,0,1,0,
103,4485.13,4051.28,4368.21,4186.67,4080.51,3580,4420.51,4460,4733.85,4523.08,4558.97,4352.31,4326.67,3990.26,1656,1694,1.49,0,0,0,0,1,0,
104,4475.9,4039.49,4362.05,4184.62,4077.95,3572.31,4415.9,4459.49,4732.82,4520,4552.82,4348.72,4318.97,3987.69,1654,1691,1.498,0,0,0,0,1,0,
105,4470.26,4034.36,4356.41,4181.03,4104.1,3579.49,4421.03,4458.97,4731.28,4518.46,4549.23,4347.69,4312.82,3989.74,1654,1692,1.505,0,0,0,0,1,0,
106,4475.38,4041.03,4357.95,4181.03,4112.82,3590.26,4428.21,4460.51,4732.82,4521.54,4553.33,4351.79,4317.95,3991.79,1654,1691,1.513,0,0,0,0,1,0,
107,4476.41,4044.62,4362.05,4183.59,4096.41,3589.23,4427.69,4462.56,4732.82,4520.51,4550.77,4351.28,4318.46,3987.18,1653,1691,1.521,0,0,0,0,1,0,
108,4473.85,4044.1,4365.64,4184.62,4090.77,3585.64,4425.13,4462.56,4733.33,4521.54,4549.74,4349.23,4317.95,3985.13,1654,1692,1.529,0,0,0,0,1,0,
109,4475.9,4045.64,4366.67,4184.62,4095.9,3588.21,4422.56,4461.54,4734.36,4531.28,4555.9,4352.31,4327.18,3989.74,1653,1692,1.537,0,0,0,0,1,0,
110,4477.95,4044.1,4361.54,4184.62,4090.77,3585.64,4419.49,4456.92,4728.21,4529.23,4555.9,4353.85,4330.26,3990.26,1653,1693,1.544,0,0,0,0,1,0,
111,4474.87,4035.38,4355.9,4182.56,4074.36,3578.97,4417.44,4450.77,4716.41,4513.33,4549.23,4345.13,4320.51,3982.56,1654,1693,1.552,0,0,0,0,1,0,
112,4471.79,4027.69,4355.9,4180,4074.36,3583.08,4422.05,4453.85,4718.46,4515.38,4547.69,4340,4316.92,3980,1654,1693,1.56,0,0,0,0,1,0,
113,4474.87,4028.72,4356.92,4181.03,4105.64,3591.79,4429.23,4463.08,4732.82,4533.33,4551.28,4347.69,4322.56,3987.69,1654,1693,1.568,0,0,0,0,1,0,
114,4476.41,4029.23,4356.41,4182.05,4115.9,3589.23,4428.72,4464.1,4736.92,4534.36,4555.9,4351.79,4325.13,3993.33,1655,1692,1.576,0,0,0,0,1,0,
115,4474.36,4023.59,4356.41,4182.05,4085.64,3587.18,4428.72,4461.03,4733.33,4520,4553.85,4348.21,4325.13,3991.28,1655,1691,1.584,0,0,0,0,1,0,
116,4472.31,4020,4356.41,4183.59,4072.82,3587.18,4426.67,4462.05,4732.82,4523.59,4543.59,4348.21,4325.13,3987.69,1655,1692,1.591,0,0,0,0,1,0,
117,4474.87,4022.56,4357.44,4187.18,4089.23,3582.05,4417.44,4459.49,4733.33,4534.36,4544.1,4350.26,4326.15,3989.74,1656,1692,1.599,0,0,0,0,1,0,
118,4484.62,4026.67,4364.62,4189.74,4098.46,3584.62,4418.46,4458.97,4734.36,4528.72,4554.87,4354.36,4330.77,3998.46,1654,1693,1.607,0,0,0,0,1,0,
119,4490.26,4025.64,4369.74,4188.72,4091.79,3592.31,4428.72,4462.56,4738.46,4525.64,4558.97,4359.49,4334.87,4001.54,1657,1693,1.615,0,0,0,0,1,0,
120,4481.03,4017.44,4364.62,4186.67,4081.54,3585.13,4421.54,4455.9,4732.31,4533.85,4550.26,4352.31,4327.18,3989.23,1656,1693,1.623,0,0,0,0,1,0,
121,4471.79,4007.18,4358.97,4185.13,4082.05,3573.85,4408.21,4443.08,4719.49,4527.69,4541.54,4340,4317.44,3980,1656,1693,1.631,0,0,0,0,1,0,
122,4474.36,4003.59,4359.49,4184.1,4090.77,3573.85,4407.69,4439.49,4714.87,4515.9,4540.51,4342.05,4317.44,3987.69,1655,1690,1.638,0,0,0,0,1,0,
123,4477.44,4006.15,4360,4183.59,4093.33,3577.95,4412.31,4441.54,4716.92,4521.03,4541.03,4350.77,4319.49,3990.77,1655,1689,1.646,0,0,0,0,1,0,
124,4473.33,4002.56,4357.95,4183.08,4085.64,3577.44,4413.85,4443.08,4722.05,4526.67,4540.51,4349.23,4317.95,3977.95,1654,1687,1.654,0,0,0,0,1,0,
125,4464.1,3993.33,4356.92,4184.1,4085.13,3576.41,4413.33,4446.15,4726.15,4522.05,4539.49,4342.56,4317.95,3973.85,1653,1687,1.662,0,0,0,0,1,0,
126,4458.46,3989.23,4357.95,4184.62,4090.77,3581.03,4411.28,4446.67,4724.1,4520,4539.49,4338.97,4317.95,3982.05,1653,1686,1.67,0,0,0,0,1,0,
127,4458.46,3990.26,4358.97,4180.51,4086.15,3586.15,4412.31,4445.13,4718.97,4523.08,4539.49,4343.08,4317.44,3984.62,1652,1685,1.677,0,0,0,0,1,0,
128,4458.46,3990.26,4358.97,4181.03,4082.05,3584.62,4414.87,4449.74,4720.51,4529.23,4541.54,4349.74,4322.05,3986.15,1653,1683,1.685,0,0,0,0,1,0,
0,4463.08,3988.72,4358.46,4184.62,4081.54,3576.41,4413.85,4450.26,4721.54,4529.23,4541.03,4346.67,4327.18,3989.23,1650,1683,1.693,0,0,0,0,1,0,
1,4458.97,3983.59,4356.92,4177.44,4078.97,3572.82,4410.26,4444.1,4713.33,4522.56,4536.92,4339.49,4326.67,3983.08,1652,1682,1.701,0,0,0,0,1,0,
2,4449.23,3975.9,4355.38,4169.23,4075.9,3573.33,4408.72,4441.03,4705.13,4520.51,4535.38,4340,4323.59,3974.87,1649,1681,1.709,0,0,0,0,1,0,
3,4458.46,3973.85,4354.87,4173.33,4077.44,3571.79,4409.74,4439.49,4707.69,4522.05,4534.87,4342.56,4322.56,3973.33,1649,1683,1.717,0,0,0,0,1,0,
4,4477.95,3975.9,4355.9,4177.95,4086.67,3578.46,4411.28,4441.54,4716.92,4519.49,4536.41,4342.05,4325.64,3977.44,1650,1683,1.724,0,0,0,0,1,0,
5,4475.9,3974.87,4357.44,4170.26,4088.72,3585.64,4413.85,4450.26,4722.05,4517.95,4538.97,4342.05,4327.18,3982.56,1650,1684,1.732,0,0,0,0,1,0,
6,4461.03,3970.77,4356.92,4165.64,4074.87,3580,4414.87,4452.82,4721.03,4524.62,4539.49,4343.08,4324.1,3977.95,1650,1683,1.74,0,0,0,0,1,0,
7,4462.56,3964.62,4354.87,4166.15,4063.59,3572.31,4412.82,4447.69,4718.46,4526.67,4537.95,4346.67,4321.03,3973.85,1650,1684,1.748,0,0,0,0,1,0,
8,4470.77,3964.1,4356.41,4165.64,4070.77,3574.36,4409.74,4449.74,4715.9,4517.95,4537.95,4349.74,4325.13,3985.13,1650,1684,1.756,0,0,0,0,1,0,
9,4478.97,3974.87,4364.62,4172.31,4093.85,3581.03,4416.92,4457.95,4720.51,4521.54,4547.18,4353.33,4335.38,3999.49,1649,1685,1.763,0,0,0,0,1,0,
10,4484.1,3983.08,4372.31,4184.1,4108.21,3589.23,4427.18,4461.03,4725.13,4534.87,4556.41,4358.97,4343.08,3999.49,1650,1685,1.771,0,0,0,0,1,0,
11,4480,3980.51,4371.28,4187.69,4098.97,3589.74,4421.54,4454.87,4721.54,4530.26,4548.21,4354.87,4337.95,3991.79,1649,1687,1.779,0,0,0,0,1,0,
12,4474.87,3973.33,4363.59,4181.03,4076.41,3575.38,4408.21,4444.62,4714.87,4516.92,4535.38,4343.59,4324.62,3985.13,1649,1688,1.788,0,0,0,0,1,0,
13,4476.92,3972.82,4362.05,4176.41,4072.31,3569.23,4408.72,4440.51,4715.9,4521.03,4535.38,4341.03,4322.05,3985.64,1650,1691,1.795,0,0,0,0,1,0,
14,4476.92,3974.36,4363.59,4173.33,4083.08,3580.51,4415.38,4442.05,4718.46,4526.67,4538.46,4347.18,4327.18,3990.26,1650,1692,1.803,0,0,0,0,1,0,
15,4468.72,3964.62,4358.97,4170.77,4084.1,3584.1,4412.82,4444.62,4717.95,4520,4537.44,4346.15,4322.56,3985.64,1651,1695,1.81,0,0,0,0,1,0,
16,4468.72,3955.38,4356.92,4171.79,4076.41,3575.9,4414.36,4453.85,4725.64,4519.49,4538.97,4344.1,4318.46,3983.08,1651,1695,1.818,0,0,0,0,1,0,
17,4476.41,3958.97,4365.13,4170.77,4072.31,3574.36,4424.1,4462.05,4733.33,4526.15,4540.51,4348.21,4325.13,3989.23,1651,1698,1.826,0,0,0,0,1,0,
18,4474.87,3961.54,4371.28,4168.72,4084.62,3580.51,4427.69,4461.03,4726.67,4525.64,4541.54,4353.33,4329.74,3988.21,1652,1698,1.834,0,0,0,0,1,0,
19,4472.82,3958.46,4369.23,4168.21,4095.38,3578.46,4421.03,4457.44,4715.9,4520,4541.54,4353.85,4325.64,3984.62,1651,1700,1.842,0,0,0,0,1,0,
20,4475.38,3958.46,4371.28,4169.74,4087.18,3572.82,4416.92,4454.36,4715.9,4516.92,4538.46,4350.77,4323.59,3989.74,1652,1701,1.85,0,0,0,0,1,0,
21,4475.9,3960,4378.97,4173.33,4075.9,3573.85,4418.97,4450.77,4719.49,4519.49,4538.46,4355.9,4325.13,3991.28,1651,1702,1.857,0,0,0,0,1,0,
22,4482.05,3960.51,4381.03,4177.44,4076.92,3574.87,4416.41,4449.74,4718.97,4525.64,4541.54,4361.03,4327.18,3987.69,1652,1705,1.865,0,0,0,0,1,0,
23,4487.18,3960.51,4373.85,4174.87,4075.9,3571.28,4409.74,4446.67,4717.44,4518.46,4538.97,4352.31,4325.13,3989.23,1652,1703,1.873,0,0,0,0,1,0,
24,4474.36,3958.46,4367.18,4169.74,4065.13,3568.72,4408.72,4441.54,4714.87,4504.62,4533.33,4345.64,4317.44,3989.74,1652,1703,1.881,0,0,0,0,1,0,
25,4466.67,3957.44,4366.67,4171.28,4067.69,3573.33,4410.77,4441.03,4714.87,4510.26,4537.44,4349.23,4318.97,3988.21,1654,1702,1.889,0,0,0,0,1,0,
26,4473.33,3956.92,4363.08,4172.31,4076.92,3569.74,4410.77,4442.56,4717.44,4518.46,4535.9,4346.67,4322.56,3989.23,1654,1702,1.896,0,0,0,0,1,0,
27,4464.62,3955.38,4359.49,4168.72,4075.38,3563.59,4409.74,4443.59,4716.92,4508.21,4526.15,4338.97,4313.33,3987.69,1655,1702,1.904,0,0,0,0,1,0,
28,4455.9,3956.41,4363.59,4169.74,4074.87,3567.69,4411.79,4443.59,4715.38,4501.54,4531.79,4342.56,4310.77,3986.67,1656,1704,1.912,0,0,0,0,1,0,
29,4471.79,3960,4367.69,4173.85,4081.03,3575.9,4417.44,4449.23,4717.95,4513.85,4545.64,4350.77,4324.62,3989.74,1659,1704,1.92,0,0,0,0,1,0,
30,4477.44,3958.46,4366.15,4171.28,4078.97,3574.36,4418.46,4455.9,4720,4522.56,4538.46,4349.23,4329.74,3989.23,1659,1704,1.928,0,0,0,0,1,0,
31,4462.05,3957.44,4365.64,4166.15,4074.36,3570.26,4413.33,4454.36,4720,4522.05,4527.69,4343.59,4323.59,3987.18,1660,1705,1.935,0,0,0,0,1,0,
32,4458.46,3958.97,4367.69,4169.23,4075.38,3571.79,4411.28,4453.33,4718.97,4521.03,4535.38,4346.15,4322.05,3990.77,1661,1705,1.943,0,0,0,0,1,0,
33,4463.08,3951.79,4365.64,4169.23,4074.36,3573.85,4412.82,4456.92,4718.46,4519.49,4538.46,4349.23,4317.95,3991.79,1661,1706,1.951,0,0,0,0,1,0,
34,4460.51,3945.64,4364.62,4158.97,4066.15,3572.82,4412.31,4454.87,4717.44,4520,4532.31,4343.59,4312.31,3983.59,1662,1703,1.959,0,0,0,0,1,0,
35,4455.38,3947.18,4363.59,4154.36,4059.49,3565.64,4412.31,4446.67,4718.97,4518.46,4532.31,4342.05,4312.31,3973.33,1661,1703,1.967,0,0,0,0,1,0,
36,4456.92,3948.21,4360.51,4160,4066.15,3555.9,4410.26,4445.13,4718.46,4515.38,4531.79,4343.59,4312.31,3973.33,1661,1702,1.975,0,0,0,0,1,0,
37,4462.05,3945.13,4355.9,4159.49,4078.46,3560.51,4404.1,4444.1,4711.79,4506.67,4524.62,4331.28,4311.28,3980.51,1660,1702,1.982,0,0,0,0,1,0,
38,4448.72,3945.13,4354.87,4152.82,4072.31,3568.72,4401.03,4443.59,4706.15,4494.87,4518.97,4327.18,4310.26,3970.26,1660,1701,1.99,0,0,0,0,1,0,
39,4425.64,3944.1,4353.85,4153.85,4055.38,3562.56,4407.69,4441.54,4703.59,4491.28,4520,4337.44,4302.05,3954.87,1659,1699,1.998,0,0,0,0,1,0,
40,4434.87,3940,4346.67,4154.87,4054.87,3558.97,4410.26,4435.38,4700,4496.41,4517.44,4327.69,4295.38,3964.1,1659,1697,2.006,0,0,0,0,1,0,
41,4469.23,3944.1,4340.51,4153.85,4078.97,3571.28,4411.28,4435.38,4702.05,4506.15,4516.41,4313.85,4304.62,3983.08,1658,1695,2.014,0,0,0,0,1,0,
42,4474.36,3950.77,4342.05,4160,4092.82,3577.95,4422.56,4446.67,4712.82,4514.36,4525.64,4322.56,4316.41,3985.64,1658,1695,2.022,0,0,0,0,1,0,
43,4459.49,3955.9,4352.31,4168.72,4089.23,3574.87,4430.77,4459.49,4722.05,4522.05,4537.44,4335.9,4321.54,3983.59,1657,1693,2.029,0,0,0,0,1,0,
44,4462.56,3956.92,4359.49,4171.28,4087.69,3577.44,4424.1,4462.56,4722.05,4529.74,4539.49,4338.46,4325.64,3990.26,1656,1695,2.037,0,0,0,0,1,0,
45,4460.51,3949.23,4355.38,4164.1,4076.41,3572.31,4412.31,4455.9,4713.85,4520,4534.36,4335.38,4322.05,3986.67,1656,1695,2.045,0,0,0,0,1,0,
46,4449.74,3941.54,4348.72,4153.33,4061.03,3558.46,4406.15,4445.64,4708.72,4506.15,4532.82,4331.28,4313.85,3975.38,1655,1695,2.053,0,0,0,0,1,0,
47,4453.33,3941.54,4350.26,4152.82,4064.62,3554.36,4405.64,4442.05,4711.28,4513.33,4535.9,4334.36,4319.49,3976.41,1656,1692,2.061,0,0,0,0,1,0,
48,4459.49,3943.59,4356.92,4161.03,4074.87,3559.49,4410.77,4445.64,4714.36,4523.08,4543.08,4343.08,4329.74,3989.23,1654,1691,2.068,0,0,0,0,1,0,
49,4457.95,3943.08,4355.38,4161.54,4077.44,3563.08,4412.31,4446.67,4710.26,4512.31,4540.51,4338.46,4323.59,3991.28,1655,1690,2.076,0,0,0,0,1,0,
50,4453.85,3942.56,4347.18,4153.85,4070.77,3556.92,4407.18,4443.08,4702.56,4501.54,4525.64,4327.69,4310.77,3978.46,1653,1688,2.084,0,0,0,0,1,0,
51,4448.72,3941.03,4345.13,4152.31,4058.46,3557.95,4408.72,4440.51,4700.51,4505.64,4520.51,4325.13,4308.72,3973.85,1654,1688,2.092,0,0,0,0,1,0,
52,4450.26,3938.97,4349.23,4155.38,4063.08,3570.26,4416.41,4443.08,4705.64,4509.23,4526.15,4328.21,4312.31,3982.56,1653,1687,2.1,0,0,0,0,1,0,
53,4458.97,3942.56,4351.28,4156.41,4081.54,3574.36,4416.41,4444.62,4707.69,4511.28,4526.67,4329.74,4310.77,3988.21,1655,1689,2.108,0,0,0,0,1,0,
54,4458.97,3942.05,4348.72,4156.41,4078.97,3564.1,4411.79,4442.05,4704.62,4508.72,4527.18,4326.15,4312.31,3981.54,1654,1689,2.115,0,0,0,0,1,0,
55,4458.46,3941.54,4351.28,4157.44,4065.64,3557.44,4411.28,4443.08,4712.82,4505.64,4536.92,4331.28,4323.08,3978.46,1654,1691,2.123,0,0,0,0,1,0,
56,4462.05,3942.56,4353.33,4156.92,4065.64,3560,4409.74,4446.67,4721.54,4510.26,4542.56,4337.44,4325.13,3982.56,1656,1691,2.131,0,0,0,0,1,0,
57,4459.49,3941.54,4348.72,4155.38,4069.23,3560,4400.51,4445.64,4717.95,4512.31,4537.95,4329.74,4321.03,3985.13,1655,1692,2.139,0,0,0,0,1,0,
58,4465.64,3940.51,4346.15,4155.38,4073.33,3555.9,4397.95,4442.05,4715.9,4507.69,4535.38,4325.64,4324.1,3987.69,1656,1691,2.147,0,0,0,0,1,0,
59,4472.82,3944.1,4354.36,4158.46,4076.92,3555.38,4406.15,4447.18,4719.49,4511.28,4535.38,4335.9,4329.23,3989.74,1655,1691,2.154,0,0,0,0,1,0,
60,4465.13,3945.64,4360.51,4160,4076.41,3561.54,4412.82,4457.44,4721.03,4522.05,4541.03,4341.03,4329.74,3990.26,1656,1692,2.162,0,0,0,0,1,0,
61,4458.97,3943.59,4354.87,4157.95,4072.82,3563.59,4412.82,4459.49,4720.51,4525.13,4542.56,4335.38,4327.18,3988.72,1655,1691,2.17,0,0,0,0,1,0,
62,4460.51,3942.05,4348.21,4156.41,4068.21,3555.38,4411.28,4452.31,4718.97,4518.46,4527.18,4330.77,4319.49,3985.64,1655,1690,2.178,0,0,0,0,1,0,
63,4456.92,3940.51,4350.26,4155.9,4063.59,3560.51,4411.79,4448.21,4720,4514.87,4522.05,4326.67,4312.82,3985.64,1656,1688,2.186,0,0,0,0,1,0,
64,4455.9,3939.49,4352.31,4153.33,4062.05,3570.77,4412.82,4450.77,4725.13,4520.51,4536.41,4327.18,4320.51,3987.69,1656,1688,2.194,0,0,0,0,1,0,
65,4460.51,3942.05,4345.13,4151.79,4067.18,3564.1,4412.82,4449.23,4723.59,4520.51,4534.36,4330.77,4324.62,3981.03,1656,1688,2.201,0,0,0,0,1,0,
66,4454.36,3941.03,4341.54,4152.31,4075.9,3556.41,4412.31,4444.1,4715.9,4509.23,4520,4326.15,4315.38,3973.33,1657,1689,2.209,0,0,0,0,1,0,
67,4452.82,3943.59,4347.18,4152.31,4080.51,3565.13,4409.74,4441.03,4715.9,4510.26,4527.69,4323.08,4314.36,3978.97,1656,1690,2.217,0,0,0,0,1,0,
68,4466.67,3951.28,4355.9,4159.49,4075.9,3570.26,4410.77,4445.64,4720.51,4519.49,4540,4335.38,4323.59,3990.77,1658,1691,2.225,0,0,0,0,1,0,
69,4467.69,3951.28,4361.03,4167.69,4070.77,3564.62,4411.79,4451.28,4720,4511.79,4536.92,4345.13,4323.08,3989.23,1657,1691,2.233,0,0,0,0,1,0,
70,4456.41,3943.59,4357.44,4161.54,4067.69,3558.97,4408.72,4450.77,4718.97,4503.59,4534.36,4336.92,4315.9,3977.95,1658,1692,2.24,0,0,0,0,1,0,
71,4458.97,3942.56,4350.77,4152.31,4065.64,3561.03,4407.18,4452.82,4728.21,4520.51,4536.41,4330.26,4318.97,3981.54,1657,1692,2.249,0,0,0,0,1,0,
72,4466.67,3945.64,4351.79,4154.36,4076.41,3569.74,4413.85,4459.49,4735.9,4531.79,4540,4337.44,4327.69,3989.74,1659,1694,2.256,0,0,0,0,1,0,
73,4461.03,3943.59,4353.33,4155.9,4087.18,3573.85,4415.38,4460,4726.15,4514.87,4535.9,4337.95,4317.44,3976.92,1658,1693,2.264,0,0,0,0,1,0,
74,4456.41,3942.56,4351.28,4153.33,4076.92,3569.74,4411.28,4457.95,4716.41,4511.28,4523.59,4329.23,4308.21,3965.13,1658,1696,2.273,0,0,0,0,1,0,
75,4457.44,3943.08,4348.72,4151.79,4059.49,3563.08,4411.28,4457.44,4719.49,4521.03,4523.59,4326.15,4311.28,3975.9,1660,1694,2.28,0,0,0,0,1,0,
76,4456.41,3938.97,4344.1,4146.15,4054.36,3558.46,4405.64,4446.67,4716.92,4510.77,4526.67,4326.15,4303.08,3977.95,1659,1695,2.287,0,0,0,0,1,0,
77,4466.67,3942.05,4344.62,4148.21,4061.03,3555.9,4401.03,4440,4710.26,4497.44,4522.05,4328.21,4296.92,3971.79,1660,1694,2.295,0,0,0,0,1,0,
78,4478.46,3957.44,4356.41,4160,4079.49,3557.44,4409.74,4452.31,4715.38,4509.23,4528.72,4338.46,4314.36,3982.05,1658,1693,2.303,0,0,0,0,1,0,
79,4469.23,3961.54,4360.51,4161.03,4091.28,3565.13,4416.41,4455.9,4721.03,4525.64,4536.92,4338.97,4321.03,3986.67,1659,1692,2.311,0,0,0,0,1,0,
80,4455.9,3946.15,4355.38,4152.82,4075.9,3571.28,4415.38,4445.64,4718.46,4519.49,4527.18,4330.77,4307.69,3975.38,1659,1690,2.319,0,0,0,0,1,0,
81,4456.41,3940.51,4354.87,4153.85,4062.56,3566.67,4414.87,4443.08,4713.85,4509.74,4521.03,4333.33,4307.18,3971.79,1659,1690,2.326,0,0,0,0,1,0,
82,4457.95,3946.67,4352.82,4153.33,4066.67,3558.97,4415.38,4445.64,4713.33,4507.18,4524.62,4337.44,4310.77,3975.38,1659,1690,2.334,0,0,0,0,1,0,
83,4455.9,3945.13,4347.18,4147.18,4064.62,3559.49,4412.31,4444.1,4715.9,4505.13,4526.67,4331.79,4306.67,3976.41,1658,1692,2.342,0,0,0,0,1,0,
84,4455.9,3947.18,4352.31,4150.26,4054.87,3557.44,4410.26,4444.1,4718.97,4506.67,4530.77,4332.82,4310.26,3982.05,1659,1691,2.35,0,0,0,0,1,0,
85,4463.08,3959.49,4364.62,4154.36,4056.92,3558.97,4410.77,4448.72,4720.51,4515.38,4540.51,4343.59,4322.56,3987.69,1658,1693,2.358,0,0,0,0,1,0,
86,4474.87,3964.1,4369.74,4156.41,4072.31,3569.23,4411.79,4450.26,4723.08,4528.21,4547.18,4351.28,4328.72,3990.26,1658,1692,2.366,0,0,0,0,1,0,
87,4481.54,3962.56,4366.67,4161.03,4078.46,3573.85,4412.82,4448.72,4723.08,4521.54,4545.64,4350.77,4325.64,3993.33,1657,1692,2.373,0,0,0,0,1,0,
88,4477.95,3968.72,4364.62,4161.03,4074.87,3568.72,4412.82,4448.21,4719.49,4507.69,4537.95,4344.62,4323.59,3992.82,1657,1691,2.381,0,0,0,0,1,0,
89,4474.36,3974.36,4364.1,4159.49,4078.97,3564.1,4412.82,4446.67,4718.97,4511.79,4533.85,4342.56,4324.1,3988.21,1655,1689,2.389,0,0,0,0,1,0,
90,4476.41,3973.85,4364.62,4166.67,4078.46,3566.15,4410.77,4443.59,4720,4521.54,4539.49,4344.62,4321.54,3990.77,1655,1688,2.397,0,0,0,0,1,0,
91,4476.41,3972.82,4362.56,4171.79,4072.82,3564.62,4409.74,4444.1,4721.03,4524.1,4541.03,4342.56,4316.92,3992.82,1655,1684,2.405,0,0,0,0,1,0,
92,4472.31,3969.23,4358.97,4163.59,4075.9,3559.49,4412.82,4444.62,4719.49,4517.95,4537.95,4341.03,4314.36,3978.97,1654,1684,2.413,0,0,0,0,1,0,
93,4468.72,3965.13,4360,4155.38,4069.74,3561.54,4411.79,4442.05,4716.41,4510.26,4535.9,4342.56,4313.85,3969.23,1654,1682,2.42,0,0,0,0,1,0,
94,4472.82,3968.21,4364.1,4160,4066.67,3568.21,4408.72,4449.23,4723.59,4514.36,4534.87,4342.05,4320.51,3984.1,1654,1681,2.428,0,0,0,0,1,0,
95,4478.97,3975.9,4367.18,4169.23,4087.69,3572.31,4417.44,4462.05,4735.9,4527.69,4546.15,4346.67,4332.31,4001.03,1654,1681,2.436,0,0,0,0,1,0,
96,4476.41,3975.9,4367.69,4169.74,4090.77,3574.87,4428.72,4461.03,4736.92,4528.72,4552.31,4352.31,4330.77,3998.46,1654,1682,2.444,0,0,0,0,1,0,
97,4474.87,3972.82,4365.13,4165.13,4070.26,3575.9,4426.67,4462.05,4733.33,4518.46,4546.15,4348.21,4325.13,3989.74,1656,1682,2.452,0,0,0,0,1,0,
98,4477.95,3981.54,4367.18,4169.74,4083.59,3574.36,4424.1,4471.79,4736.92,4524.62,4548.21,4348.21,4331.79,3991.28,1655,1683,2.459,0,0,0,0,1,0,
99,4476.41,3991.28,4371.79,4172.82,4101.54,3576.41,4428.72,4469.74,4738.46,4530.26,4552.82,4354.36,4335.9,3993.85,1658,1684,2.467,0,0,0,0,1,0,
100,4468.72,3987.69,4366.15,4165.64,4071.79,3575.38,4422.05,4457.95,4730.26,4512.82,4543.08,4346.67,4325.64,3983.59,1657,1685,2.475,0,0,0,0,1,0,
101,4475.9,3985.64,4358.97,4165.13,4057.95,3571.28,4412.31,4456.41,4730.77,4506.15,4541.54,4340.51,4320,3976.92,1658,1688,2.483,0,0,0,0,1,0,
102,4492.31,3993.33,4365.64,4174.36,4096.92,3573.33,4420,4463.08,4742.05,4523.59,4556.41,4352.82,4329.23,3985.64,1658,1688,2.492,0,0,0,0,1,0,
103,4488.21,3993.33,4370.26,4175.38,4112.82,3576.41,4428.21,4462.56,4741.54,4528.72,4554.87,4354.36,4326.15,3991.79,1657,1690,2.499,0,0,0,0,1,0,
104,4471.79,3982.56,4364.1,4168.72,4083.08,3575.38,4426.15,4459.49,4731.28,4521.54,4540,4342.56,4311.28,3986.67,1658,1689,2.506,0,0,0,0,1,0,
105,4470.77,3975.9,4358.97,4165.13,4070.26,3574.87,4423.08,4458.46,4729.74,4523.59,4536.41,4340.51,4307.69,3977.95,1656,1688,2.514,0,0,0,0,1,0,
106,4475.9,3972.82,4356.41,4158.97,4078.46,3572.82,4423.08,4456.92,4732.31,4514.36,4535.38,4341.03,4308.72,3974.87,1656,1688,2.522,0,0,0,0,1,0,
107,4470.26,3973.33,4355.9,4149.23,4076.41,3571.28,4424.1,4463.08,4732.82,4509.74,4536.92,4341.54,4310.26,3981.54,1655,1687,2.53,0,0,0,0,1,0,
108,4472.31,3985.64,4365.13,4157.44,4077.95,3574.36,4428.72,4472.82,4739.49,4523.08,4547.69,4350.26,4317.95,3991.79,1656,1686,2.538,0,0,0,0,1,0,
109,4485.64,3990.77,4369.74,4169.74,4081.03,3574.36,4426.15,4468.72,4737.44,4516.92,4549.74,4353.33,4318.97,3993.33,1654,1686,2.545,0,0,0,0,1,0,
110,4484.1,3983.59,4361.54,4165.64,4080,3570.77,4417.95,4455.9,4727.18,4500.51,4537.95,4346.67,4308.21,3985.13,1655,1687,2.553,0,0,0,0,1,0,
111,4474.36,3987.18,4361.03,4164.62,4086.15,3577.95,4421.03,4456.92,4729.74,4514.36,4535.38,4348.72,4311.28,3982.05,1655,1687,2.561,0,0,0,0,1,0,
112,4475.9,3995.9,4369.74,4173.33,4086.67,3585.13,4423.59,4461.54,4734.36,4525.64,4543.08,4352.82,4321.03,3986.67,1655,1690,2.569,0,0,0,0,1,0,
113,4479.49,3991.79,4369.23,4168.21,4084.1,3576.41,4414.36,4453.85,4730.77,4514.36,4541.03,4349.74,4316.92,3986.67,1656,1691,2.577,0,0,0,0,1,0,
114,4474.36,3990.26,4364.1,4156.41,4093.33,3568.72,4412.31,4451.28,4730.26,4512.82,4537.95,4350.26,4314.87,3977.95,1655,1693,2.585,0,0,0,0,1,0,
115,4472.31,3997.95,4364.1,4162.05,4095.9,3572.82,4419.49,4457.95,4733.33,4520.51,4537.95,4349.23,4316.92,3972.82,1658,1694,2.592,0,0,0,0,1,0,
116,4476.41,3996.92,4367.18,4172.31,4086.15,3574.36,4417.95,4460.51,4733.85,4522.05,4540,4345.64,4314.36,3977.95,1657,1695,2.6,0,0,0,0,1,0,
117,4477.95,3991.28,4366.67,4168.21,4081.54,3570.77,4414.87,4462.05,4734.87,4522.05,4541.03,4342.56,4309.74,3982.05,1658,1697,2.608,0,0,0,0,1,0,
118,4468.72,3988.72,4360,4155.9,4073.33,3569.74,4415.9,4456.92,4728.21,4511.28,4530.26,4340,4303.08,3968.21,1658,1696,2.616,0,0,0,0,1,0,
119,4461.03,3989.74,4357.44,4151.28,4064.62,3569.23,4413.33,4449.23,4720.51,4503.08,4525.13,4339.49,4298.46,3955.38,1659,1695,2.624,0,0,0,0,1,0,
120,4470.77,3995.38,4363.59,4157.95,4078.46,3572.31,4413.85,4451.79,4728.72,4519.49,4531.79,4340,4303.08,3970.26,1658,1694,2.631,0,0,0,0,1,0,
121,4481.03,3997.44,4363.08,4163.08,4101.54,3576.92,4418.97,4453.33,4736.92,4524.62,4537.95,4341.03,4312.82,3985.64,1660,1692,2.639,0,0,0,0,1,0,
122,4477.95,3992.31,4356.92,4156.92,4092.31,3573.85,4418.97,4444.1,4726.67,4504.62,4536.92,4340,4309.23,3975.9,1659,1693,2.647,0,0,0,0,1,0,
123,4470.26,3986.15,4354.36,4151.28,4064.1,3570.26,4413.33,4437.95,4713.33,4498.97,4527.18,4334.87,4296.92,3965.64,1660,1692,2.655,0,0,0,0,1,0,
124,4470.26,3989.23,4358.97,4160,4073.33,3574.36,4412.82,4441.54,4720,4510.77,4524.1,4334.87,4297.44,3969.23,1659,1693,2.663,0,0,0,0,1,0,
125,4475.9,4002.05,4364.62,4172.82,4097.95,3577.95,4417.95,4450.26,4734.87,4520.51,4535.9,4344.1,4309.23,3975.38,1659,1693,2.671,0,0,0,0,1,0,
126,4475.38,4009.23,4360.51,4171.79,4088.21,3575.38,4418.97,4455.9,4737.95,4524.1,4546.15,4347.18,4315.9,3976.41,1658,1693,2.679,0,0,0,0,1,0,
127,4470.26,4004.1,4354.87,4165.13,4078.97,3571.79,4416.92,4461.54,4736.41,4523.08,4545.64,4341.54,4316.92,3972.31,1658,1693,2.686,0,0,0,0,1,0,
128,4471.79,4002.05,4362.05,4164.62,4095.38,3573.33,4415.9,4470.77,4739.49,4520.51,4549.74,4345.13,4323.08,3975.38,1657,1694,2.694,0,0,0,0,1,0,
0,4478.46,4007.69,4371.28,4167.69,4092.82,3575.9,4417.44,4473.33,4740.51,4525.64,4556.41,4353.85,4330.26,3983.59,1658,1695,2.702,0,0,0,0,1,0,
1,4477.95,4007.18,4366.15,4168.72,4073.85,3575.38,4420,4461.03,4733.33,4528.72,4553.33,4351.28,4323.59,3978.46,1656,1695,2.71,0,0,0,0,1,0,
2,4470.26,4002.05,4358.46,4165.64,4070.26,3571.79,4416.92,4454.87,4723.08,4522.05,4542.56,4341.54,4310.77,3968.72,1655,1695,2.718,0,0,0,0,1,0,
3,4469.74,4002.05,4361.54,4163.59,4081.03,3571.28,4417.44,4460,4724.1,4517.95,4540,4342.56,4313.33,3974.87,1656,1692,2.725,0,0,0,0,1,0,
4,4478.46,4006.15,4370.26,4168.21,4096.92,3574.87,4427.18,4457.44,4732.31,4526.67,4548.21,4351.79,4328.21,3986.15,1653,1691,2.733,0,0,0,0,1,0,
5,4480.51,4004.62,4365.13,4169.74,4090.77,3574.87,4428.72,4445.64,4725.13,4525.64,4545.13,4348.21,4321.54,3980,1655,1689,2.741,0,0,0,0,1,0,
6,4473.33,4005.13,4355.9,4166.67,4074.87,3572.82,4417.95,4440,4716.41,4510.77,4533.33,4337.44,4306.15,3966.67,1653,1688,2.749,0,0,0,0,1,0,
7,4477.44,4013.85,4363.08,4170.26,4084.1,3572.82,4413.33,4446.67,4727.18,4514.36,4543.08,4343.59,4316.41,3973.33,1654,1688,2.758,0,0,0,0,1,0,
8,4488.72,4018.46,4370.77,4174.36,4100.51,3573.33,4414.36,4449.23,4730.77,4528.21,4557.95,4352.82,4329.74,3990.26,1653,1689,2.764,0,0,0,0,1,0,
9,4490.26,4016.41,4366.67,4173.85,4095.9,3573.85,4412.82,4444.1,4718.97,4524.1,4549.74,4349.74,4321.03,3994.87,1654,1688,2.772,0,0,0,0,1,0,
10,4488.21,4019.49,4367.69,4176.41,4090.77,3574.87,4415.38,4443.59,4718.46,4513.33,4536.92,4349.23,4310.26,3991.28,1653,1688,2.78,0,0,0,0,1,0,
11,4484.62,4020,4370.26,4174.87,4092.82,3572.31,4414.36,4445.13,4722.05,4507.69,4538.97,4350.26,4311.28,3984.1,1654,1688,2.788,0,0,0,0,1,0,
12,4475.9,4013.85,4365.13,4166.67,4089.23,3571.28,4410.26,4445.13,4718.46,4503.08,4543.08,4344.62,4311.79,3975.9,1653,1688,2.796,0,0,0,0,1,0,
13,4471.79,4012.31,4365.64,4167.18,4088.72,3574.36,4418.46,4446.15,4722.05,4510.77,4539.49,4345.13,4309.23,3981.54,1653,1690,2.804,0,0,0,0,1,0,
14,4476.41,4013.33,4373.85,4172.31,4087.69,3574.87,4429.74,4449.23,4728.21,4522.05,4543.08,4352.31,4310.26,3985.64,1653,1691,2.811,0,0,0,0,1,0,
15,4475.9,4013.85,4374.87,4170.26,4088.21,3580,4428.21,4453.85,4728.21,4522.56,4551.79,4351.79,4313.33,3976.41,1652,1694,2.819,0,0,0,0,1,0,
16,4470.77,4021.54,4372.82,4171.79,4102.05,3588.72,4425.64,4458.46,4732.82,4521.03,4554.36,4354.36,4318.97,3978.46,1653,1693,2.827,0,0,0,0,1,0,
17,4477.95,4031.28,4374.87,4178.97,4111.79,3583.59,4426.67,4460.51,4736.41,4523.08,4552.82,4359.49,4320,3993.33,1651,1694,2.835,0,0,0,0,1,0,
18,4491.79,4030.26,4371.79,4178.97,4096.41,3579.49,4422.56,4456.41,4729.23,4520.51,4549.74,4350.77,4314.87,3993.33,1652,1694,2.843,0,0,0,0,1,0,
19,4488.72,4021.03,4363.59,4171.28,4080,3584.1,4416.92,4446.15,4722.05,4508.72,4547.18,4341.03,4311.28,3987.18,1652,1693,2.85,0,0,0,0,1,0,
20,4474.87,4017.44,4363.08,4167.69,4086.67,3577.95,4412.31,4439.49,4717.95,4501.54,4541.54,4341.03,4309.74,3986.15,1652,1692,2.858,0,0,0,0,1,0,
21,4473.85,4020,4369.74,4173.33,4100,3566.67,4410.26,4438.46,4711.79,4502.56,4538.46,4347.18,4306.67,3980,1652,1691,2.866,0,0,0,0,1,0,
22,4480.51,4020.51,4369.74,4175.38,4106.15,3569.74,4417.95,4440,4711.79,4505.64,4542.56,4351.79,4304.1,3973.33,1653,1691,2.874,0,0,0,0,1,0,
23,4481.03,4017.95,4366.15,4172.31,4102.05,3576.41,4429.74,4449.23,4724.62,4506.67,4539.49,4347.69,4303.08,3976.41,1653,1691,2.882,0,0,0,0,1,0,
24,4481.54,4018.46,4369.74,4171.79,4094.87,3574.36,4430.26,4458.97,4733.33,4510.26,4533.33,4344.1,4307.18,3984.1,1653,1693,2.89,0,0,0,0,1,0,
25,4479.49,4021.03,4370.77,4172.31,4089.74,3576.41,4428.21,4463.59,4735.38,4518.46,4546.67,4349.23,4311.28,3987.69,1655,1693,2.897,0,0,0,0,1,0,
26,4475.38,4017.95,4367.69,4169.74,4092.82,3579.49,4433.33,4473.85,4742.05,4521.03,4556.92,4352.31,4310.77,3987.69,1655,1695,2.905,0,0,0,0,1,0,
27,4475.9,4016.92,4368.21,4171.28,4103.08,3578.97,4436.41,4477.95,4746.15,4521.54,4543.08,4350.26,4310.77,3990.77,1656,1694,2.913,0,0,0,0,1,0,
28,4482.05,4023.59,4368.72,4173.33,4098.46,3582.05,4433.33,4466.67,4738.97,4524.1,4538.46,4350.26,4312.82,3989.74,1655,1695,2.921,0,0,0,0,1,0,
29,4477.95,4024.62,4365.64,4167.69,4084.1,3577.95,4427.69,4456.92,4723.59,4513.85,4553.33,4349.23,4307.69,3984.62,1656,1696,2.929,0,0,0,0,1,0,
30,4474.36,4021.03,4365.64,4171.28,4093.33,3571.79,4425.64,4453.85,4720,4503.59,4558.46,4349.74,4309.23,3988.21,1656,1695,2.936,0,0,0,0,1,0,
31,4485.13,4026.67,4367.69,4183.08,4109.23,3576.41,4426.67,4450.26,4727.18,4514.87,4545.13,4351.79,4317.95,3993.85,1655,1696,2.944,0,0,0,0,1,0,
32,4489.23,4032.31,4367.18,4187.69,4104.1,3577.95,4426.67,4446.15,4731.28,4524.62,4534.36,4344.1,4316.41,3989.74,1655,1695,2.952,0,0,0,0,1,0,
33,4479.49,4027.18,4366.67,4180.51,4101.54,3576.41,4426.67,4446.15,4731.28,4514.87,4541.03,4339.49,4309.74,3985.64,1655,1694,2.96,0,0,0,0,1,0,
34,4475.38,4021.54,4367.18,4172.31,4107.69,3585.13,4428.72,4452.31,4732.82,4505.13,4549.74,4342.56,4311.28,3988.21,1654,1693,2.968,0,0,0,0,1,0,
35,4477.95,4021.54,4367.18,4173.85,4095.9,3583.08,4428.21,4460,4735.9,4508.21,4543.59,4342.56,4311.28,3988.21,1654,1691,2.976,0,0,0,0,1,0,
36,4473.85,4019.49,4365.64,4176.92,4079.49,3570.77,4426.67,4464.62,4736.92,4522.56,4540,4343.08,4310.26,3985.64,1655,1687,2.983,0,0,0,0,1,0,
37,4469.74,4016.41,4365.64,4169.74,4083.08,3583.59,4434.36,4473.85,4749.74,4539.49,4556.41,4350.77,4320.51,3987.18,1653,1686,2.991,0,0,0,0,1,0,
38,4476.92,4019.49,4372.82,4167.69,4100,3592.82,4440,4490.77,4764.62,4542.56,4574.36,4360,4330.26,3995.9,1656,1685,2.999,0,0,0,0,1,0,
39,4486.67,4022.56,4378.97,4179.49,4099.49,3575.38,4431.79,4494.87,4763.08,4538.46,4571.79,4361.03,4329.23,4001.03,1656,1686,3.007,0,0,0,0,1,0,
40,4483.08,4018.46,4374.36,4177.95,4081.54,3565.13,4422.05,4480.51,4751.79,4537.95,4558.46,4356.92,4323.08,3991.79,1656,1690,3.015,0,0,0,0,1,0,
41,4478.46,4020.51,4373.33,4172.31,4084.1,3573.33,4430.26,4471.79,4747.69,4536.41,4560,4358.97,4327.18,3995.38,1657,1691,3.023,0,0,0,0,1,0,
42,4489.23,4029.74,4381.54,4181.54,4100.51,3584.62,4442.56,4475.9,4750.77,4538.97,4571.28,4364.1,4335.9,4012.82,1657,1693,3.03,0,0,0,0,1,0,
43,4491.79,4031.28,4381.54,4185.64,4095.9,3591.79,4438.46,4470.26,4749.23,4538.97,4570.26,4358.46,4332.82,4010.77,1659,1692,3.038,0,0,0,0,1,0,
44,4477.95,4027.69,4372.31,4183.08,4085.13,3586.15,4428.72,4457.44,4742.56,4527.69,4563.59,4348.72,4327.18,3995.9,1658,1692,3.046,0,0,0,0,1,0,
45,4475.38,4025.13,4367.18,4180.51,4091.28,3575.38,4424.1,4456.92,4736.92,4521.03,4561.54,4345.64,4325.64,3992.82,1659,1691,3.054,0,0,0,0,1,0,
46,4473.33,4017.44,4365.64,4172.82,4091.28,3570.77,4422.56,4458.46,4730.77,4523.59,4551.79,4339.49,4315.38,3985.64,1658,1690,3.062,0,0,0,0,1,0,
47,4463.08,4011.28,4364.1,4167.69,4088.21,3569.23,4421.03,4461.03,4731.79,4525.13,4547.18,4338.97,4306.67,3974.87,1657,1688,3.069,0,0,0,0,1,0,
48,4470.26,4015.9,4373.33,4173.33,4094.87,3571.28,4425.64,4477.95,4746.15,4533.33,4562.56,4353.85,4320,3986.67,1656,1686,3.077,0,0,0,0,1,0,
49,4485.13,4021.54,4383.08,4173.33,4093.85,3574.36,4431.79,4493.33,4756.92,4547.18,4568.21,4363.08,4330.26,3998.46,1654,1685,3.085,0,0,0,0,1,0,
50,4474.36,4014.87,4383.59,4169.74,4083.59,3573.85,4435.9,4493.85,4752.82,4540,4557.95,4357.95,4319.49,3992.31,1654,1684,3.093,0,0,0,0,1,0,
51,4459.49,3995.9,4378.46,4166.15,4068.72,3570.26,4435.38,4491.28,4748.72,4520.51,4551.79,4353.85,4310.26,3987.69,1653,1683,3.101,0,0,0,0,1,0,
52,4470.26,3986.67,4373.33,4157.44,4060,3570.26,4432.82,4487.69,4750.77,4524.62,4556.92,4353.85,4310.26,3988.72,1653,1683,3.108,0,0,0,0,1,0,
53,4476.92,3997.95,4371.28,4152.31,4076.41,3575.38,4437.44,4480,4753.33,4541.54,4564.1,4357.44,4316.41,3990.26,1653,1682,3.116,0,0,0,0,1,0,
54,4463.08,4001.03,4370.77,4154.36,4098.97,3576.92,4438.46,4472.31,4749.74,4533.85,4563.59,4359.49,4323.08,3987.69,1653,1683,3.124,0,0,0,0,1,0,
55,4455.38,3990.26,4364.1,4155.38,4091.79,3573.85,4429.74,4464.1,4740,4520.51,4553.85,4351.28,4313.33,3981.03,1654,1683,3.132,0,0,0,0,1,0,
56,4453.33,3983.59,4352.82,4150.77,4077.44,3574.87,4424.1,4456.41,4731.79,4521.03,4538.97,4339.49,4293.85,3969.23,1654,1685,3.14,0,0,0,0,1,0,
57,4443.59,3987.69,4354.36,4151.79,4086.67,3574.36,4422.05,4456.41,4727.18,4513.33,4533.33,4337.95,4289.74,3963.59,1657,1687,3.148,0,0,0,0,1,0,
58,4443.08,3993.33,4361.03,4162.05,4092.31,3562.56,4418.46,4457.44,4720,4502.56,4536.92,4340,4295.9,3966.67,1657,1688,3.155,0,0,0,0,1,0,
59,4453.85,3996.41,4358.97,4168.21,4083.08,3558.46,4419.49,4454.36,4714.36,4506.67,4538.97,4340,4293.33,3971.79,1658,1691,3.163,0,0,0,0,1,0,
60,4463.08,3997.95,4364.62,4169.74,4083.59,3569.74,4430.26,4463.08,4723.08,4509.23,4540.51,4343.08,4292.82,3981.03,1660,1691,3.171,0,0,0,0,1,0,
61,4470.77,3996.92,4374.36,4166.15,4082.05,3574.36,4435.38,4476.41,4734.36,4502.05,4542.05,4349.23,4297.95,3986.67,1660,1692,3.179,0,0,0,0,1,0,
62,4475.38,3998.46,4372.82,4160.51,4076.92,3571.28,4436.41,4478.46,4735.9,4509.23,4547.18,4354.36,4296.41,3987.18,1661,1692,3.187,0,0,0,0,1,0,
63,4474.87,4003.08,4372.31,4164.1,4086.15,3572.31,4437.44,4475.38,4738.97,4516.41,4551.28,4358.46,4292.31,3987.69,1661,1690,3.195,0,0,0,0,1,0,
64,4476.92,4005.13,4381.54,4174.87,4083.59,3572.31,4434.36,4474.36,4747.18,4508.21,4551.79,4362.05,4297.44,3989.74,1660,1688,3.203,0,0,0,0,1,0,
65,4480,4008.21,4391.28,4176.92,4074.87,3573.85,4436.41,4478.46,4754.87,4522.56,4558.97,4367.18,4310.77,3995.9,1659,1688,3.21,0,0,0,0,1,0,
66,4480,4013.33,4391.79,4171.28,4088.72,3577.95,4440.51,4483.08,4760,4554.87,4565.64,4368.72,4313.33,3999.49,1659,1685,3.218,0,0,0,0,1,0,
67,4473.85,4011.79,4377.44,4167.18,4087.18,3573.85,4432.82,4470.26,4751.79,4549.74,4550.77,4352.82,4301.03,3990.26,1656,1686,3.226,0,0,0,0,1,0,
68,4462.05,4004.1,4364.62,4165.64,4065.64,3567.18,4423.59,4452.82,4733.85,4519.49,4535.38,4338.97,4292.31,3973.85,1656,1686,3.234,0,0,0,0,1,0,
69,4457.44,4002.05,4370.26,4167.69,4083.08,3570.26,4428.72,4462.56,4732.31,4516.41,4538.97,4348.72,4292.82,3971.28,1653,1686,3.241,0,0,0,0,1,0,
70,4463.08,4008.21,4372.31,4168.72,4108.72,3575.38,4434.87,4475.9,4740,4517.95,4540.51,4354.36,4295.38,3976.41,1653,1686,3.249,0,0,0,0,1,0,
71,4463.08,4013.33,4363.08,4168.72,4095.38,3569.23,4430.26,4464.62,4730.77,4498.46,4536.92,4341.03,4291.28,3975.9,1651,1684,3.257,0,0,0,0,1,0,
72,4454.87,4011.79,4356.92,4169.74,4076.41,3561.54,4425.64,4455.38,4716.92,4488.72,4538.46,4334.36,4281.54,3971.28,1649,1685,3.265,0,0,0,0,1,0,
73,4450.26,4012.31,4354.36,4169.74,4075.38,3567.18,4425.64,4460,4716.92,4489.74,4532.31,4337.95,4282.56,3971.28,1649,1683,3.273,0,0,0,0,1,0,
74,4456.41,4022.05,4358.97,4172.31,4095.9,3575.9,4428.21,4462.05,4728.21,4496.92,4535.38,4341.03,4297.44,3981.54,1647,1682,3.281,0,0,0,0,1,0,
75,4470.77,4032.31,4367.18,4178.46,4109.74,3575.38,4425.64,4462.05,4737.44,4520.51,4554.36,4346.15,4308.72,3990.77,1646,1681,3.288,0,0,0,0,1,0,
76,4473.85,4033.85,4367.18,4182.05,4092.31,3574.36,4417.44,4461.03,4736.92,4536.41,4556.41,4350.26,4309.23,3989.74,1645,1681,3.296,0,0,0,0,1,0,
77,4463.59,4027.18,4368.21,4181.03,4080,3576.41,4413.33,4455.38,4733.33,4524.62,4556.41,4355.38,4309.74,3989.74,1645,1680,3.305,0,0,0,0,1,0,
78,4465.64,4021.03,4376.41,4181.54,4089.23,3571.28,4410.77,4453.33,4733.33,4516.92,4569.23,4361.54,4310.77,3991.79,1643,1681,3.312,0,0,0,0,1,0,
79,4477.44,4026.67,4383.08,4182.05,4087.18,3568.72,4410.26,4456.92,4736.41,4527.18,4569.23,4362.56,4312.82,3993.33,1645,1682,3.32,0,0,0,0,1,0,
80,4479.49,4031.79,4381.54,4183.08,4078.97,3570.26,4415.38,4459.49,4738.46,4528.21,4556.41,4360,4314.87,4002.05,1644,1683,3.328,0,0,0,0,1,0,
81,4475.38,4028.21,4376.92,4185.13,4083.08,3570.77,4422.56,4462.05,4740.51,4522.56,4552.31,4355.38,4312.82,4003.59,1644,1686,3.335,0,0,0,0,1,0,
82,4475.38,4030.26,4375.38,4182.05,4084.62,3573.33,4431.79,4473.85,4746.15,4523.59,4556.41,4351.79,4312.82,3994.87,1645,1685,3.343,0,0,0,0,1,0,
83,4472.31,4031.28,4369.74,4173.33,4085.64,3577.44,4441.54,4485.13,4748.72,4520.51,4558.46,4349.74,4308.21,3989.23,1645,1686,3.351,0,0,0,0,1,0,
84,4463.59,4026.15,4359.49,4169.23,4094.87,3577.95,4442.56,4484.1,4744.1,4520.51,4551.28,4344.62,4298.97,3980,1645,1685,3.359,0,0,0,0,1,0,
85,4451.79,4025.64,4356.41,4172.31,4092.31,3576.41,4435.38,4477.44,4742.05,4526.15,4538.46,4335.38,4293.85,3969.23,1645,1687,3.367,0,0,0,0,1,0,
86,4442.56,4022.05,4356.92,4170.26,4082.05,3574.87,4430.77,4468.72,4736.92,4518.46,4536.41,4331.28,4286.15,3965.13,1646,1688,3.374,0,0,0,0,1,0,
87,4444.1,4015.9,4353.33,4166.15,4084.1,3570.77,4426.67,4455.9,4722.05,4501.03,4536.92,4331.79,4279.49,3966.15,1646,1689,3.382,0,0,0,0,1,0,
88,4455.38,4023.08,4356.92,4175.9,4088.72,3569.74,4421.03,4449.74,4717.95,4498.97,4536.41,4335.38,4286.67,3974.87,1647,1691,3.39,0,0,0,0,1,0,
89,4469.23,4031.79,4367.69,4187.18,4089.74,3572.31,4418.97,4449.23,4728.72,4511.28,4546.15,4342.56,4296.92,3988.72,1647,1691,3.398,0,0,0,0,1,0,
90,4474.87,4030.77,4366.15,4185.64,4092.31,3571.28,4413.85,4448.21,4731.28,4520,4548.72,4344.1,4298.97,3990.77,1649,1689,3.406,0,0,0,0,1,0,
91,4472.82,4033.85,4362.56,4182.56,4092.31,3570.77,4408.72,4451.79,4730.77,4523.08,4541.03,4340.51,4300.51,3984.62,1649,1689,3.414,0,0,0,0,1,0,
92,4472.82,4037.95,4368.72,4188.21,4090.26,3574.87,4418.97,4461.03,4738.46,4523.08,4549.74,4342.05,4300,3982.05,1650,1692,3.421,0,0,0,0,1,0,
93,4470.26,4031.79,4366.15,4184.62,4086.15,3575.9,4428.21,4465.64,4741.03,4514.87,4557.95,4339.49,4296.92,3978.97,1651,1693,3.429,0,0,0,0,1,0,
94,4460.51,4026.15,4347.69,4169.74,4081.03,3570.77,4421.54,4463.08,4735.9,4508.21,4543.08,4325.64,4295.38,3971.28,1651,1699,3.437,0,0,0,0,1,0,
95,4457.44,4027.69,4341.03,4165.64,4081.03,3567.18,4421.54,4460,4732.31,4510.77,4531.28,4320.51,4286.67,3962.05,1653,1702,3.445,0,0,0,0,1,0,
96,4456.92,4026.15,4348.21,4167.69,4072.82,3562.56,4429.23,4458.97,4725.13,4500,4535.9,4324.62,4277.44,3955.9,1653,1706,3.453,0,0,0,0,1,0,
97,4450.77,4025.13,4354.87,4169.23,4058.97,3562.56,4425.13,4457.95,4715.38,4484.1,4536.92,4328.21,4281.54,3958.46,1654,1709,3.46,0,0,0,0,1,0,
98,4458.97,4035.38,4361.54,4178.97,4075.9,3573.33,4423.59,4458.46,4722.56,4495.38,4536.92,4337.95,4293.33,3971.28,1655,1709,3.468,0,0,0,0,1,0,
99,4471.28,4039.49,4368.21,4189.74,4101.03,3577.44,4430.26,4462.05,4734.36,4512.82,4540,4341.03,4297.95,3978.46,1657,1710,3.476,0,0,0,0,1,0,
100,4463.08,4030.26,4367.69,4185.64,4092.31,3572.31,4423.59,4460,4730.26,4507.18,4540,4330.77,4294.36,3972.31,1658,1711,3.484,0,0,0,0,1,0,
101,4456.92,4025.64,4365.13,4179.49,4082.05,3571.28,4413.85,4455.9,4726.67,4504.62,4538.97,4328.21,4293.33,3973.85,1659,1714,3.492,0,0,0,0,1,0,
102,4464.1,4030.26,4366.15,4183.08,4092.31,3574.87,4415.9,4457.95,4734.36,4522.56,4544.1,4335.9,4296.92,3985.13,1661,1717,3.5,0,0,0,0,1,0,
103,4463.08,4030.77,4366.67,4186.67,4093.85,3574.36,4416.41,4458.46,4736.92,4524.1,4550.77,4340,4296.92,3984.62,1662,1716,3.507,0,0,0,0,1,0,
104,4455.9,4026.15,4364.62,4185.13,4082.05,3573.33,4412.31,4457.44,4733.85,4507.69,4552.31,4340.51,4293.85,3973.33,1662,1715,3.515,0,0,0,0,1,0,
105,4455.9,4023.59,4360,4181.03,4082.56,3572.82,4412.31,4460,4734.87,4510.26,4551.28,4336.41,4295.38,3971.28,1664,1713,3.523,0,0,0,0,1,0,
106,4457.95,4026.67,4359.49,4182.05,4090.77,3571.79,4414.87,4455.9,4734.87,4515.38,4550.77,4332.82,4303.59,3977.95,1663,1713,3.531,0,0,0,0,1,0,
107,4454.87,4035.9,4364.62,4186.67,4090.26,3570.26,4416.41,4450.77,4732.31,4507.18,4550.77,4336.41,4310.77,3983.08,1665,1714,3.539,0,0,0,0,1,0,
108,4458.46,4038.46,4366.67,4188.21,4082.56,3570.26,4420.51,4456.92,4733.85,4510.77,4550.26,4337.44,4306.67,3981.54,1664,1715,3.546,0,0,0,0,1,0,
109,4471.28,4033.85,4363.59,4187.69,4086.15,3573.85,4426.67,4457.95,4735.38,4524.62,4543.59,4331.28,4304.1,3978.97,1665,1716,3.554,0,0,0,0,1,0,
110,4472.82,4040,4363.59,4187.69,4105.64,3577.44,4428.21,4452.31,4734.87,4523.59,4541.54,4332.82,4308.72,3984.1,1666,1715,3.562,0,0,0,0,1,0,
111,4466.67,4048.72,4366.67,4189.23,4108.21,3576.92,4421.54,4456.92,4734.87,4517.44,4552.31,4341.54,4312.82,3992.31,1666,1714,3.57,0,0,0,0,1,0,
112,4467.69,4039.49,4364.1,4188.72,4092.31,3574.36,4415.38,4458.46,4733.33,4513.33,4556.92,4339.49,4312.82,3990.77,1668,1709,3.578,0,0,0,0,1,0,
113,4465.13,4029.74,4358.46,4185.64,4086.15,3572.31,4411.79,4445.13,4724.62,4507.18,4545.64,4327.18,4309.23,3983.08,1667,1708,3.586,0,0,0,0,1,0,
114,4460.51,4031.28,4355.9,4184.1,4091.79,3570.77,4406.67,4437.95,4715.38,4506.15,4535.9,4326.67,4303.08,3973.85,1669,1705,3.593,0,0,0,0,1,0,
115,4468.72,4029.23,4357.44,4184.1,4093.85,3566.67,4405.13,4442.56,4714.36,4505.13,4544.62,4335.38,4303.08,3975.38,1669,1704,3.601,0,0,0,0,1,0,
116,4476.92,4026.67,4362.56,4185.13,4091.28,3571.28,4410.77,4443.08,4717.95,4503.59,4554.36,4337.44,4309.74,3985.13,1669,1703,3.61,0,0,0,0,1,0,
117,4470.26,4034.36,4365.64,4186.15,4095.38,3581.03,4419.49,4447.18,4723.08,4509.23,4547.18,4332.82,4311.79,3983.59,1669,1701,3.617,0,0,0,0,1,0,
118,4462.05,4035.9,4361.03,4186.15,4102.05,3576.92,4425.64,4456.41,4726.67,4511.28,4535.9,4328.21,4308.21,3973.85,1670,1699,3.625,0,0,0,0,1,0,
119,4460.51,4030.26,4356.92,4186.67,4102.05,3577.44,4428.21,4459.49,4726.67,4506.67,4535.38,4326.15,4309.23,3974.87,1669,1697,3.632,0,0,0,0,1,0,
120,4463.08,4031.28,4359.49,4186.15,4093.33,3586.67,4427.69,4458.46,4728.21,4511.28,4541.03,4328.21,4312.82,3978.97,1670,1697,3.64,0,0,0,0,1,0,
121,4461.54,4031.79,4356.41,4182.56,4089.74,3578.97,4426.15,4457.44,4731.79,4518.97,4545.13,4328.72,4311.28,3974.36,1670,1696,3.648,0,0,0,0,1,0,
122,4458.97,4029.74,4352.31,4182.05,4090.26,3574.36,4426.67,4453.85,4735.38,4523.59,4543.08,4326.67,4308.72,3973.85,1670,1697,3.656,0,0,0,0,1,0,
123,4461.03,4032.31,4354.87,4186.67,4088.21,3586.67,4426.15,4450.26,4734.36,4524.1,4542.56,4326.15,4310.77,3978.46,1671,1695,3.664,0,0,0,0,1,0,
124,4458.46,4033.85,4351.79,4183.59,4091.79,3582.05,4417.44,4447.18,4729.23,4513.33,4553.33,4328.72,4311.79,3975.38,1670,1695,3.672,0,0,0,0,1,0,
125,4458.97,4033.85,4350.26,4181.54,4095.9,3570.26,4409.23,4446.67,4730.26,4506.67,4558.97,4336.92,4311.28,3975.9,1671,1692,3.679,0,0,0,0,1,0,
126,4470.77,4040.51,4361.03,4192.82,4098.97,3580.51,4417.44,4452.82,4735.38,4516.41,4550.77,4342.05,4315.38,3986.15,1669,1691,3.687,0,0,0,0,1,0,
127,4480.51,4045.64,4369.74,4195.9,4105.64,3590.77,4428.72,4462.05,4736.92,4525.13,4552.31,4345.13,4318.97,3990.77,1670,1692,3.695,0,0,0,0,1,0,
128,4476.41,4036.92,4365.13,4184.1,4099.49,3583.59,4428.72,4460,4734.36,4521.03,4556.92,4349.74,4316.41,3992.31,1670,1692,3.703,0,0,0,0,1,0,
0,4474.36,4030.77,4368.21,4184.1,4086.15,3579.49,4428.21,4456.92,4734.36,4518.46,4554.87,4350.26,4317.44,3995.9,1669,1692,3.711,0,0,0,0,1,0,
1,4484.62,4039.49,4383.08,4198.46,4090.26,3587.69,4432.31,4469.74,4738.97,4529.23,4561.03,4355.38,4325.13,3998.97,1670,1691,3.718,0,0,0,0,1,0,
2,4492.82,4046.67,4385.13,4203.59,4094.87,3584.1,4430.26,4474.87,4739.49,4530.26,4570.77,4362.56,4327.69,4002.56,1669,1690,3.726,0,0,0,0,1,0,
3,4490.77,4041.54,4376.92,4200,4089.23,3577.95,4428.21,4464.1,4735.38,4511.79,4571.28,4360,4327.18,4007.18,1669,1688,3.734,0,0,0,0,1,0,
4,4483.08,4033.85,4371.79,4195.9,4095.38,3581.03,4427.18,4458.46,4731.28,4509.23,4561.54,4353.33,4325.64,4006.15,1668,1689,3.742,0,0,0,0,1,0,
5,4481.54,4037.44,4371.28,4194.87,4108.21,3577.44,4422.56,4455.38,4726.15,4527.18,4555.38,4350.77,4321.03,4003.59,1669,1689,3.75,0,0,0,0,1,0,
6,4486.15,4043.08,4371.79,4201.03,4113.33,3576.92,4422.56,4448.21,4721.03,4522.05,4557.44,4350.26,4319.49,3999.49,1667,1692,3.758,0,0,0,0,1,0,
7,4481.54,4041.03,4369.23,4200,4108.72,3585.13,4425.13,4444.1,4717.95,4502.56,4556.41,4347.69,4317.95,3991.28,1668,1693,3.765,0,0,0,0,1,0,
8,4475.38,4033.33,4365.13,4187.69,4099.49,3580.51,4421.54,4445.64,4717.44,4507.69,4550.26,4343.59,4312.82,3989.74,1667,1692,3.773,0,0,0,0,1,0,
9,4476.41,4027.18,4362.56,4181.54,4095.9,3571.79,4417.44,4442.56,4716.41,4514.36,4550.77,4342.05,4308.21,3991.28,1667,1692,3.781,0,0,0,0,1,0,
10,4474.36,4023.59,4366.67,4185.13,4093.33,3576.41,4419.49,4442.56,4717.44,4502.56,4552.31,4344.62,4309.23,3990.77,1666,1689,3.789,0,0,0,0,1,0,
11,4478.97,4026.67,4375.9,4186.67,4091.28,3576.92,4425.64,4452.31,4723.59,4507.69,4553.85,4353.33,4316.92,4000.51,1666,1690,3.797,0,0,0,0,1,0,
12,4501.03,4034.87,4383.08,4187.18,4096.92,3573.85,4429.74,4461.54,4734.36,4529.74,4566.15,4365.64,4327.69,4015.9,1665,1688,3.805,0,0,0,0,1,0,
13,4504.1,4036.92,4380.51,4187.69,4096.41,3576.41,4428.21,4462.05,4736.92,4532.82,4572.82,4366.67,4328.72,4017.44,1664,1689,3.812,0,0,0,0,1,0,
14,4491.28,4036.92,4374.36,4189.23,4094.87,3575.9,4425.64,4456.92,4730.26,4521.03,4569.23,4357.95,4321.03,4009.74,1665,1687,3.82,0,0,0,0,1,0,
15,4490.26,4035.38,4374.87,4190.26,4102.05,3573.33,4425.64,4460,4727.69,4522.56,4568.72,4358.97,4318.97,4006.15,1664,1686,3.828,0,0,0,0,1,0,
16,4486.15,4027.69,4374.87,4185.13,4099.49,3573.85,4421.03,4456.41,4723.08,4524.1,4564.1,4360.51,4315.9,4002.56,1664,1684,3.836,0,0,0,0,1,0,
17,4475.9,4025.13,4371.28,4183.08,4090.77,3572.31,4417.44,4446.67,4718.97,4516.41,4553.33,4350.77,4308.21,4003.08,1662,1683,3.844,0,0,0,0,1,0,
18,4474.87,4029.23,4367.69,4187.18,4092.82,3570.26,4422.56,4451.28,4724.62,4514.36,4551.28,4345.64,4308.72,4005.13,1664,1683,3.851,0,0,0,0,1,0,
19,4483.59,4032.31,4367.18,4191.79,4101.54,3578.46,4429.74,4460,4733.33,4520,4555.38,4348.72,4313.85,3998.46,1663,1684,3.859,0,0,0,0,1,0,
20,4487.69,4026.67,4367.18,4190.26,4102.56,3588.72,4430.26,4458.46,4733.33,4526.15,4554.36,4349.23,4312.82,3990.26,1662,1685,3.867,0,0,0,0,1,0,
21,4480,4022.05,4363.59,4183.59,4092.82,3582.05,4427.69,4455.38,4727.18,4524.1,4552.82,4343.59,4309.23,3989.23,1662,1682,3.875,0,0,0,0,1,0,
22,4474.36,4025.13,4363.59,4183.08,4080.51,3571.28,4427.18,4457.95,4727.18,4520,4552.82,4339.49,4312.31,3992.31,1660,1682,3.883,0,0,0,0,1,0,
23,4489.23,4029.23,4367.69,4189.74,4086.67,3575.9,4429.74,4460.51,4734.36,4527.18,4559.49,4346.15,4318.46,4000.51,1660,1681,3.89,0,0,0,0,1,0,
24,4495.9,4029.23,4368.21,4188.72,4100,3578.46,4430.26,4462.05,4737.44,4533.85,4570.77,4351.79,4320.51,4004.1,1658,1682,3.898,0,0,0,0,1,0,
25,4480.51,4027.18,4364.62,4183.08,4095.9,3572.31,4425.13,4460.51,4732.82,4525.64,4566.67,4346.67,4319.49,3994.87,1657,1684,3.906,0,0,0,0,1,0,
26,4472.82,4025.13,4360.51,4184.1,4089.74,3572.82,4423.08,4458.97,4731.79,4518.97,4553.85,4340.51,4315.9,3986.67,1655,1687,3.914,0,0,0,0,1,0,
27,4475.9,4020,4356.92,4185.13,4088.21,3573.33,4425.64,4461.03,4733.85,4521.54,4551.28,4339.49,4310.77,3988.72,1655,1689,3.922,0,0,0,0,1,0,
28,4473.85,4020.51,4360.51,4182.05,4089.23,3571.79,4426.15,4460.51,4729.23,4520.51,4554.36,4341.03,4307.69,3989.23,1654,1691,3.93,0,0,0,0,1,0,
29,4473.85,4023.59,4364.62,4180.51,4095.9,3576.41,4427.18,4457.44,4725.13,4521.54,4552.31,4341.54,4308.21,3988.72,1653,1694,3.937,0,0,0,0,1,0,
30,4477.95,4021.54,4360.51,4184.1,4092.31,3577.44,4430.26,4457.44,4728.72,4521.54,4551.28,4342.05,4309.23,3989.23,1653,1696,3.945,0,0,0,0,1,0,
31,4477.95,4017.95,4358.97,4183.08,4077.95,3572.31,4430.77,4458.97,4732.31,4508.72,4552.82,4342.56,4307.69,3989.23,1653,1697,3.954,0,0,0,0,1,0,
32,4475.9,4016.92,4364.1,4171.28,4075.38,3570.77,4426.67,4457.95,4726.67,4506.15,4554.36,4342.05,4306.15,3992.31,1653,1698,3.961,0,0,0,0,1,0,
33,4476.92,4018.97,4365.64,4170.26,4079.49,3573.33,4427.18,4457.95,4725.13,4521.03,4556.92,4344.62,4309.74,3997.95,1653,1699,3.969,0,0,0,0,1,0,
34,4475.38,4023.59,4364.62,4184.1,4081.03,3574.36,4429.74,4458.97,4731.79,4529.23,4556.41,4349.23,4315.9,4001.54,1652,1701,3.977,0,0,0,0,1,0,
35,4478.46,4028.21,4369.23,4186.67,4095.38,3571.79,4424.62,4460,4735.38,4526.67,4554.87,4352.82,4319.49,4005.13,1653,1701,3.984,0,0,0,0,1,0,
36,4488.72,4029.74,4374.36,4181.03,4103.59,3567.69,4417.95,4464.1,4738.97,4526.15,4559.49,4354.87,4322.56,4007.18,1651,1702,3.992,0,0,0,0,1,0,
37,4492.31,4028.72,4374.36,4186.67,4089.23,3570.26,4420.51,4467.18,4742.56,4526.67,4564.62,4353.33,4321.54,4007.69,1652,1701,4,0,0,0,0,1,0,
38,4484.1,4028.21,4370.26,4190.26,4079.49,3570.77,4420.51,4458.46,4733.85,4525.64,4556.92,4345.13,4310.77,4003.08,1650,1700,4.008,0,0,0,0,1,0,
39,4470.26,4019.49,4360.51,4177.44,4073.85,3557.95,4412.31,4445.64,4720,4509.74,4541.54,4333.85,4295.9,3987.18,1649,1699,4.016,0,0,0,0,1,0,
40,4460,4008.21,4353.33,4166.67,4062.56,3557.44,4414.87,4441.03,4711.79,4492.31,4533.85,4326.15,4287.18,3970.26,1648,1694,4.023,0,0,0,0,1,0,
41,4461.03,4010.26,4354.87,4168.72,4071.79,3572.31,4424.62,4442.05,4708.21,4497.95,4533.85,4323.59,4291.79,3970.77,1646,1694,4.031,0,0,0,0,1,0,
42,4463.59,4021.03,4359.49,4172.31,4097.44,3574.87,4428.21,4442.56,4708.21,4509.23,4538.46,4330.77,4301.03,3983.59,1647,1690,4.039,0,0,0,0,1,0,
43,4466.15,4022.05,4357.95,4170.77,4101.03,3569.23,4427.69,4443.08,4710.77,4507.18,4541.03,4334.87,4299.49,3990.26,1644,1687,4.047,0,0,0,0,1,0,
44,4472.31,4012.31,4353.33,4169.23,4083.59,3569.74,4421.54,4442.05,4709.23,4501.54,4536.41,4325.64,4295.38,3983.59,1645,1686,4.055,0,0,0,0,1,0,
45,4476.92,4011.79,4354.87,4168.72,4076.41,3570.26,4418.46,4440,4708.21,4502.56,4533.33,4323.08,4301.03,3978.97,1643,1686,4.063,0,0,0,0,1,0,
46,4478.46,4027.69,4363.59,4175.9,4086.67,3570.77,4426.15,4442.56,4720,4512.82,4544.1,4335.9,4311.79,3988.72,1644,1685,4.07,0,0,0,0,1,0,
47,4481.54,4038.97,4368.21,4184.1,4095.9,3575.38,4432.31,4453.85,4734.87,4530.26,4556.92,4345.13,4324.1,4001.03,1642,1685,4.078,0,0,0,0,1,0,
48,4480.51,4032.31,4367.18,4178.46,4089.74,3574.87,4428.72,4457.95,4731.79,4529.23,4554.36,4341.03,4328.21,4000.51,1643,1685,4.086,0,0,0,0,1,0,
49,4475.38,4025.13,4366.15,4167.18,4085.64,3569.74,4426.67,4446.15,4717.95,4511.79,4545.64,4334.87,4318.46,3990.26,1642,1685,4.094,0,0,0,0,1,0,
50,4476.41,4028.21,4365.64,4168.72,4089.74,3574.36,4426.15,4440.51,4716.41,4505.64,4549.74,4333.85,4313.33,3987.18,1642,1687,4.102,0,0,0,0,1,0,
51,4478.46,4032.82,4367.18,4176.41,4086.15,3586.67,4429.23,4455.38,4722.56,4511.28,4554.36,4338.97,4319.49,3990.77,1642,1685,4.11,0,0,0,0,1,0,
52,4476.92,4030.26,4366.15,4175.38,4080,3583.08,4429.74,4459.49,4720,4509.23,4542.05,4339.49,4315.38,3989.74,1642,1687,4.117,0,0,0,0,1,0,
53,4475.38,4023.08,4361.03,4169.74,4084.62,3567.18,4420,4449.23,4720,4501.03,4535.38,4336.92,4305.64,3985.64,1643,1686,4.125,0,0,0,0,1,0,
54,4475.38,4026.67,4364.62,4171.28,4093.33,3569.74,4417.95,4455.38,4731.79,4509.23,4552.31,4343.59,4309.74,3991.28,1642,1686,4.133,0,0,0,0,1,0,
55,4474.36,4028.72,4369.74,4172.82,4089.74,3577.44,4420,4457.95,4731.79,4525.64,4554.87,4345.64,4311.79,3989.23,1643,1686,4.141,0,0,0,0,1,0,
56,4472.82,4018.97,4361.03,4166.67,4082.56,3572.31,4412.82,4444.62,4718.97,4522.05,4535.9,4335.38,4301.03,3977.44,1644,1685,4.156,0,0,0,0,1,0,
57,4475.9,4017.44,4360,4168.72,4083.08,3569.23,4413.85,4444.62,4717.95,4509.74,4533.33,4332.82,4295.38,3979.49,1646,1685,4.16,0,0,0,0,1,0,
58,4478.46,4021.54,4366.15,4171.79,4080,3571.28,4418.97,4449.23,4721.03,4505.64,4542.56,4337.44,4295.38,3983.08,1646,1685,4.164,0,0,0,0,1,0,
59,4474.87,4017.95,4362.05,4166.67,4077.44,3570.77,4416.41,4440,4715.9,4505.13,4538.46,4337.44,4294.36,3975.38,1647,1684,4.172,0,0,0,0,1,0,
60,4472.82,4021.54,4362.56,4171.79,4087.18,3572.82,4421.54,4446.15,4721.03,4505.64,4535.9,4339.49,4297.44,3978.97,1648,1683,4.18,0,0,0,0,1,0,
61,4475.9,4027.69,4370.26,4185.13,4093.85,3573.33,4430.26,4461.54,4733.85,4512.31,4547.69,4347.69,4305.64,3993.85,1649,1685,4.188,0,0,0,0,1,0,
62,4476.92,4025.64,4368.21,4184.1,4089.74,3572.31,4427.18,4457.95,4733.85,4523.59,4557.44,4349.23,4309.74,3999.49,1651,1683,4.196,0,0,0,0,1,0,
63,4475.9,4028.72,4364.62,4174.87,4093.33,3575.38,4426.67,4455.38,4731.79,4524.62,4551.79,4344.62,4311.79,3996.41,1651,1684,4.203,0,0,0,0,1,0,
64,4476.41,4026.15,4363.59,4171.79,4084.1,3574.87,4425.64,4459.49,4729.74,4513.33,4541.03,4341.54,4309.23,3990.77,1652,1684,4.211,0,0,0,0,1,0,
65,4475.38,4018.46,4357.44,4170.77,4065.64,3567.69,4413.33,4450.77,4720.51,4502.56,4536.92,4337.44,4297.95,3984.62,1652,1685,4.219,0,0,0,0,1,0,
66,4471.79,4023.59,4357.95,4170.77,4078.97,3572.31,4414.87,4441.54,4714.87,4503.08,4538.46,4335.9,4295.38,3983.59,1653,1685,4.227,0,0,0,0,1,0,
67,4471.79,4031.79,4365.13,4172.31,4101.54,3582.56,4429.23,4449.23,4721.03,4513.33,4539.49,4339.49,4300.51,3984.1,1652,1684,4.235,0,0,0,0,1,0,
68,4472.82,4027.18,4364.62,4169.74,4099.49,3578.97,4429.74,4458.46,4728.21,4521.54,4536.41,4341.03,4298.97,3985.13,1652,1684,4.242,0,0,0,0,1,0,
69,4471.79,4024.62,4366.15,4172.82,4098.46,3577.95,4426.15,4459.49,4733.33,4514.87,4539.49,4341.54,4298.46,3986.15,1652,1684,4.25,0,0,0,0,1,0,
70,4477.44,4030.77,4373.85,4184.62,4107.18,3591.28,4433.85,4462.56,4735.38,4506.15,4550.26,4348.72,4305.64,3988.72,1651,1684,4.259,0,0,0,0,1,0,
71,4484.1,4033.33,4375.38,4188.72,4103.59,3590.26,4434.87,4458.97,4727.18,4512.82,4547.18,4350.77,4309.74,3992.31,1651,1684,4.266,0,0,0,0,1,0,
72,4478.46,4030.26,4373.33,4183.08,4094.36,3572.31,4424.62,4447.18,4717.44,4523.59,4537.95,4344.1,4308.21,3990.77,1651,1686,4.274,0,0,0,0,1,0,
73,4472.82,4026.15,4373.33,4184.1,4087.18,3574.36,4423.59,4444.1,4716.92,4522.05,4545.64,4345.13,4308.72,3987.18,1652,1684,4.282,0,0,0,0,1,0,
74,4477.95,4026.15,4369.74,4184.62,4089.74,3588.72,4428.72,4446.67,4720.51,4512.31,4549.74,4347.18,4310.26,3988.21,1650,1686,4.289,0,0,0,0,1,0,
75,4481.54,4029.74,4365.13,4175.38,4104.62,3588.72,4431.28,4448.21,4727.18,4507.69,4537.44,4344.1,4309.74,3992.82,1651,1686,4.297,0,0,0,0,1,0,
76,4474.87,4026.67,4364.62,4166.15,4103.59,3585.13,4432.82,4454.87,4730.77,4507.69,4533.33,4339.49,4301.03,3986.67,1649,1687,4.305,0,0,0,0,1,0,
77,4468.72,4018.46,4364.1,4167.18,4091.28,3586.67,4433.85,4458.46,4726.67,4508.72,4539.49,4335.38,4291.28,3975.38,1650,1689,4.313,0,0,0,0,1,0,
78,4474.87,4021.03,4363.59,4172.82,4094.36,3590.77,4440,4458.46,4732.31,4517.44,4541.54,4335.9,4297.44,3976.92,1650,1689,4.321,0,0,0,0,1,0,
79,4475.9,4022.05,4365.64,4172.31,4091.79,3588.21,4443.59,4464.1,4741.54,4526.15,4540.51,4338.46,4305.13,3986.15,1650,1691,4.328,0,0,0,0,1,0,
80,4462.05,4009.74,4364.62,4167.18,4076.41,3579.49,4433.85,4460,4730.26,4517.44,4536.41,4331.79,4297.44,3979.49,1651,1691,4.336,0,0,0,0,1,0,
81,4459.49,4008.72,4358.97,4167.18,4082.56,3571.28,4425.64,4444.62,4714.36,4496.41,4534.87,4326.67,4291.28,3970.77,1651,1692,4.344,0,0,0,0,1,0,
82,4472.82,4018.46,4355.9,4170.26,4097.95,3569.74,4427.18,4443.08,4716.41,4492.31,4537.44,4327.18,4296.41,3974.87,1652,1691,4.352,0,0,0,0,1,0,
83,4474.87,4021.54,4359.49,4170.26,4093.85,3580,4432.82,4456.41,4724.1,4504.1,4537.95,4329.23,4296.92,3975.38,1653,1692,4.36,0,0,0,0,1,0,
84,4472.82,4023.08,4365.64,4172.31,4088.21,3590.26,4437.44,4460.51,4724.62,4510.26,4538.46,4337.44,4294.87,3970.26,1654,1694,4.368,0,0,0,0,1,0,
85,4474.87,4027.18,4369.74,4176.41,4095.38,3582.05,4436.41,4454.36,4721.54,4509.23,4538.46,4341.54,4298.46,3975.9,1656,1694,4.375,0,0,0,0,1,0,
86,4463.59,4020.51,4364.1,4167.18,4090.26,3567.69,4423.59,4444.62,4712.31,4506.67,4530.26,4329.74,4290.26,3978.46,1656,1694,4.383,0,0,0,0,1,0,
87,4454.36,4013.33,4355.38,4158.97,4067.69,3568.72,4413.85,4431.79,4701.03,4496.41,4518.97,4321.54,4274.87,3965.13,1658,1694,4.391,0,0,0,0,1,0,
88,4466.67,4022.56,4358.46,4168.21,4074.87,3574.36,4416.41,4431.79,4704.1,4490.26,4524.1,4329.74,4280.51,3961.54,1658,1694,4.399,0,0,0,0,1,0,
89,4478.97,4032.31,4366.67,4175.38,4108.21,3572.31,4421.54,4444.62,4717.44,4502.05,4537.44,4336.92,4296.92,3978.97,1658,1696,4.407,0,0,0,0,1,0,
90,4477.95,4028.21,4365.13,4172.82,4109.74,3572.31,4419.49,4447.18,4717.95,4509.23,4536.92,4333.85,4295.38,3983.59,1659,1696,4.414,0,0,0,0,1,0,
91,4475.38,4026.15,4364.1,4180,4091.79,3573.33,4414.87,4442.05,4714.87,4504.62,4535.9,4334.87,4292.31,3972.82,1659,1698,4.422,0,0,0,0,1,0,
92,4476.92,4034.36,4368.21,4186.15,4088.72,3573.85,4415.9,4444.1,4717.44,4506.67,4544.62,4343.08,4298.97,3972.31,1660,1697,4.43,0,0,0,0,1,0,
93,4474.36,4029.23,4362.56,4172.82,4080,3572.82,4414.87,4442.56,4709.23,4505.64,4544.1,4341.03,4295.38,3972.82,1659,1700,4.438,0,0,0,0,1,0,
94,4473.33,4023.59,4360.51,4164.62,4074.87,3573.85,4417.95,4441.03,4705.64,4504.1,4536.92,4336.92,4295.38,3973.85,1660,1699,4.446,0,0,0,0,1,0,
95,4476.41,4034.87,4369.74,4180,4089.23,3575.38,4425.64,4446.15,4716.92,4510.26,4537.95,4342.56,4303.08,3984.62,1657,1700,4.454,0,0,0,0,1,0,
96,4472.31,4033.33,4371.28,4187.69,4092.31,3573.33,4423.59,4446.15,4716.92,4510.26,4537.44,4343.08,4300.51,3989.74,1658,1701,4.461,0,0,0,0,1,0,
97,4471.28,4024.62,4369.23,4174.87,4092.31,3573.33,4421.03,4445.64,4714.87,4506.67,4536.92,4341.54,4298.97,3989.23,1657,1700,4.469,0,0,0,0,1,0,
98,4473.85,4025.64,4369.23,4164.1,4097.44,3572.82,4421.03,4448.21,4721.54,4510.26,4543.08,4344.1,4302.05,3985.13,1657,1701,4.477,0,0,0,0,1,0,
99,4463.59,4022.56,4360.51,4164.1,4084.62,3569.74,4414.36,4444.1,4716.92,4511.28,4541.54,4339.49,4297.44,3972.31,1656,1701,4.485,0,0,0,0,1,0,
100,4456.41,4018.97,4353.85,4167.69,4073.85,3569.23,4410.77,4437.44,4705.13,4507.69,4535.9,4332.82,4293.33,3968.21,1656,1701,4.493,0,0,0,0,1,0,
101,4462.05,4024.1,4358.46,4170.77,4082.05,3571.79,4418.97,4439.49,4704.1,4504.62,4538.97,4332.31,4296.41,3977.95,1656,1700,4.5,0,0,0,0,1,0,
102,4463.59,4024.1,4358.46,4168.72,4085.64,3574.36,4425.64,4441.03,4708.21,4505.13,4536.41,4329.74,4294.36,3977.95,1655,1701,4.508,0,0,0,0,1,0,
103,4462.56,4022.56,4357.95,4171.28,4089.74,3576.41,4425.64,4438.97,4710.26,4506.67,4528.72,4329.23,4292.82,3971.28,1656,1698,4.516,0,0,0,0,1,0,
104,4469.23,4030.26,4364.1,4178.97,4100.51,3574.87,4427.69,4440,4712.31,4501.03,4533.33,4337.44,4296.92,3974.36,1654,1698,4.524,0,0,0,0,1,0,
105,4477.44,4034.36,4361.03,4176.92,4100,3572.31,4427.18,4443.59,4712.31,4496.41,4542.56,4338.46,4297.95,3977.95,1655,1697,4.532,0,0,0,0,1,0,
106,4472.31,4025.13,4355.9,4165.13,4084.62,3570.77,4421.54,4442.05,4710.77,4501.54,4535.9,4329.23,4295.38,3974.36,1653,1696,4.54,0,0,0,0,1,0,
107,4458.97,4016.41,4361.54,4165.64,4081.03,3569.23,4420.51,4441.03,4711.28,4509.23,4532.31,4328.72,4295.38,3972.82,1654,1696,4.547,0,0,0,0,1,0,
108,4463.59,4026.15,4370.77,4176.41,4094.87,3572.31,4429.23,4452.82,4720,4522.56,4546.67,4343.59,4306.67,3988.72,1654,1695,4.555,0,0,0,0,1,0,
109,4481.54,4035.38,4371.28,4175.9,4091.79,3574.87,4432.82,4462.05,4727.18,4530.77,4556.92,4351.79,4312.82,4000.51,1654,1695,4.563,0,0,0,0,1,0,
110,4481.03,4024.62,4366.15,4168.21,4072.31,3572.82,4427.18,4458.97,4722.05,4514.36,4553.33,4344.62,4306.15,3993.33,1653,1694,4.572,0,0,0,0,1,0,
111,4471.79,4016.92,4367.69,4167.69,4077.44,3574.36,4427.18,4455.9,4716.92,4505.13,4547.18,4341.03,4306.15,3989.23,1653,1694,4.579,0,0,0,0,1,0,
112,4474.36,4021.03,4370.26,4171.79,4096.41,3575.38,4430.26,4452.82,4717.95,4520,4544.62,4344.62,4306.15,3987.18,1654,1693,4.587,0,0,0,0,1,0,
113,4470.26,4022.05,4361.54,4169.23,4089.23,3571.28,4427.69,4445.13,4713.85,4518.97,4536.92,4336.41,4294.87,3974.36,1653,1693,4.594,0,0,0,0,1,0,
114,4463.08,4022.05,4350.77,4167.69,4078.46,3571.79,4426.15,4442.56,4709.23,4500.51,4529.23,4323.08,4290.77,3971.28,1654,1692,4.602,0,0,0,0,1,0,
115,4460.51,4024.1,4347.69,4169.74,4080.51,3573.33,4425.64,4444.1,4708.72,4489.23,4526.67,4321.03,4294.87,3976.92,1652,1693,4.61,0,0,0,0,1,0,
116,4451.79,4025.13,4350.77,4166.15,4077.95,3567.18,4424.62,4439.49,4709.23,4490.77,4524.1,4323.59,4292.31,3974.36,1654,1693,4.618,0,0,0,0,1,0,
117,4459.49,4028.72,4355.9,4166.67,4078.97,3568.21,4427.69,4443.59,4715.38,4507.18,4526.67,4324.1,4292.82,3977.44,1652,1691,4.626,0,0,0,0,1,0,
118,4481.03,4031.79,4357.95,4171.79,4092.82,3573.85,4429.23,4454.87,4720,4523.59,4533.33,4326.15,4297.95,3987.69,1653,1692,4.633,0,0,0,0,1,0,
119,4485.13,4029.74,4358.97,4171.79,4100.51,3572.82,4427.69,4458.97,4719.49,4521.03,4543.08,4332.31,4298.46,3989.23,1654,1689,4.641,0,0,0,0,1,0,
120,4481.54,4027.18,4366.67,4169.23,4095.38,3577.44,4434.87,4458.46,4727.18,4524.1,4549.74,4344.1,4308.21,3987.69,1654,1690,4.649,0,0,0,0,1,0,
121,4490.26,4028.72,4375.38,4168.72,4089.23,3587.69,4446.67,4464.1,4738.46,4535.38,4553.85,4354.36,4319.49,3995.38,1655,1689,4.657,0,0,0,0,1,0,
122,4491.79,4029.23,4375.38,4168.72,4091.28,3590.77,4448.21,4467.69,4737.44,4533.33,4557.95,4355.38,4317.95,4003.59,1654,1689,4.665,0,0,0,0,1,0,
123,4477.44,4021.54,4368.21,4168.21,4091.79,3584.1,4444.1,4461.54,4729.74,4523.08,4551.79,4348.21,4306.67,3996.92,1656,1688,4.673,0,0,0,0,1,0,
124,4469.74,4013.85,4365.13,4167.69,4086.15,3576.41,4443.59,4454.36,4721.03,4509.23,4546.15,4345.13,4298.97,3986.15,1655,1688,4.68,0,0,0,0,1,0,
125,4471.28,4018.97,4366.15,4166.15,4082.05,3573.85,4436.41,4451.28,4715.9,4502.05,4551.79,4347.69,4300,3986.67,1655,1688,4.688,0,0,0,0,1,0,
126,4470.77,4029.74,4366.67,4169.23,4079.49,3570.26,4418.97,4444.1,4716.41,4510.77,4550.26,4347.18,4302.56,3989.23,1654,1689,4.696,0,0,0,0,1,0,
127,4473.33,4033.33,4367.18,4177.95,4084.1,3565.64,4412.82,4439.49,4717.95,4520.51,4539.49,4344.62,4304.62,3992.82,1655,1689,4.704,0,0,0,0,1,0,
128,4486.15,4038.97,4372.31,4183.59,4104.62,3568.72,4420.51,4449.23,4723.59,4527.18,4545.64,4352.82,4309.23,4000.51,1654,1689,4.712,0,0,0,0,1,0,
0,4495.38,4048.21,4377.44,4186.15,4114.87,3574.87,4423.59,4461.54,4728.72,4534.36,4557.44,4362.05,4312.82,4000,1654,1691,4.719,0,0,0,0,1,0,
1,4483.08,4040.51,4375.38,4184.62,4094.87,3571.79,4418.97,4458.46,4723.08,4520,4551.79,4354.36,4308.72,3992.31,1654,1690,4.727,0,0,0,0,1,0,
2,4469.23,4026.67,4372.82,4175.38,4082.56,3567.69,4416.92,4447.69,4715.38,4497.95,4546.67,4347.18,4302.05,3991.28,1652,1692,4.735,0,0,0,0,1,0,
3,4471.28,4027.69,4371.28,4169.23,4096.41,3570.77,4422.05,4445.64,4717.95,4511.79,4551.79,4350.77,4302.05,3991.28,1654,1692,4.743,0,0,0,0,1,0,
4,4477.44,4030.26,4364.62,4170.77,4091.28,3572.82,4427.18,4447.69,4722.56,4530.26,4553.85,4348.21,4305.13,3988.21,1652,1693,4.751,0,0,0,0,1,0,
5,4470.77,4020.51,4356.41,4161.03,4066.67,3569.23,4424.62,4444.62,4722.05,4522.05,4550.26,4339.49,4308.72,3987.69,1652,1693,4.759,0,0,0,0,1,0,
6,4459.49,4015.38,4358.46,4151.28,4068.21,3562.05,4423.08,4444.1,4727.69,4516.41,4550.26,4341.03,4310.26,3988.21,1652,1693,4.766,0,0,0,0,1,0,
7,4462.56,4023.08,4364.62,4163.08,4088.21,3563.59,4424.1,4447.69,4733.33,4524.62,4553.85,4347.69,4309.23,3987.18,1653,1693,4.774,0,0,0,0,1,0,
8,4474.36,4030.26,4366.15,4174.36,4091.79,3571.28,4423.59,4446.15,4728.21,4522.05,4545.64,4344.62,4307.69,3986.67,1652,1693,4.782,0,0,0,0,1,0,
9,4475.9,4029.23,4365.13,4169.23,4091.28,3570.77,4420.51,4443.08,4724.62,4521.54,4537.44,4340,4307.18,3987.18,1653,1694,4.79,0,0,0,0,1,0,
10,4473.33,4029.23,4366.15,4169.23,4092.31,3568.72,4422.05,4451.28,4731.28,4523.59,4548.72,4344.1,4311.28,3990.77,1653,1695,4.798,0,0,0,0,1,0,
11,4475.38,4030.77,4365.13,4174.87,4082.05,3571.79,4424.62,4460,4733.85,4509.74,4558.97,4347.18,4309.23,3989.74,1655,1694,4.805,0,0,0,0,1,0,
12,4472.82,4029.74,4364.1,4170.77,4080,3571.79,4422.56,4459.49,4729.23,4506.15,4548.72,4342.56,4299.49,3986.67,1655,1694,4.813,0,0,0,0,1,0,
13,4472.82,4029.74,4368.72,4169.23,4093.85,3569.23,4422.56,4456.92,4729.74,4525.13,4541.03,4340.51,4301.54,3989.74,1655,1693,4.821,0,0,0,0,1,0,
14,4477.44,4035.38,4373.85,4175.38,4095.9,3572.31,4426.67,4460.51,4733.85,4527.18,4547.69,4346.67,4309.74,3991.79,1654,1694,4.829,0,0,0,0,1,0,
15,4473.33,4036.92,4374.36,4174.87,4085.64,3575.38,4430.77,4457.95,4732.82,4509.23,4555.38,4352.82,4300.51,3988.21,1655,1694,4.837,0,0,0,0,1,0,
16,4472.82,4029.74,4371.28,4169.23,4088.72,3573.33,4429.23,4449.23,4725.64,4507.69,4551.79,4349.74,4290.26,3986.67,1654,1694,4.845,0,0,0,0,1,0,
17,4484.1,4028.72,4368.72,4170.77,4088.21,3571.28,4424.1,4447.18,4725.64,4518.97,4539.49,4343.59,4297.95,3988.21,1655,1693,4.852,0,0,0,0,1,0,
18,4484.62,4029.74,4371.28,4170.26,4080.51,3573.85,4430.77,4461.03,4734.36,4525.13,4540.51,4346.15,4302.05,3991.79,1653,1693,4.86,0,0,0,0,1,0,
19,4473.85,4022.05,4371.79,4158.46,4083.59,3574.36,4440.51,4476.41,4736.41,4515.9,4553.85,4351.28,4296.41,3990.77,1654,1694,4.868,0,0,0,0,1,0,
20,4472.82,4021.03,4372.31,4161.03,4087.69,3571.79,4440,4473.33,4734.87,4503.08,4553.33,4352.82,4300.51,3985.13,1654,1693,4.876,0,0,0,0,1,0,
21,4482.05,4029.74,4381.54,4183.08,4081.54,3571.79,4433.33,4463.59,4732.82,4511.79,4542.05,4354.36,4307.69,3992.31,1653,1693,4.884,0,0,0,0,1,0,
22,4475.38,4023.59,4383.59,4177.95,4072.31,3568.72,4431.28,4455.9,4722.05,4517.95,4537.95,4350.77,4300.51,3995.38,1654,1693,4.892,0,0,0,0,1,0,
23,4455.9,4012.31,4368.21,4152.82,4069.74,3565.64,4431.79,4450.77,4714.36,4501.03,4536.41,4341.54,4287.18,3981.03,1653,1692,4.899,0,0,0,0,1,0,
24,4456.92,4016.92,4359.49,4158.46,4074.87,3569.23,4431.79,4452.82,4717.95,4487.69,4541.54,4340,4287.69,3977.44,1653,1693,4.907,0,0,0,0,1,0,
25,4473.33,4023.08,4360.51,4170.26,4077.95,3573.33,4432.82,4457.44,4720,4492.82,4544.62,4341.03,4292.31,3982.05,1652,1692,4.915,0,0,0,0,1,0,
26,4474.36,4023.08,4355.9,4160.51,4070.26,3571.28,4429.23,4455.38,4715.9,4499.49,4528.21,4336.92,4289.74,3972.82,1653,1691,4.923,0,0,0,0,1,0,
27,4464.1,4026.15,4355.9,4161.54,4080,3570.26,4427.18,4453.33,4718.46,4507.69,4520.51,4338.46,4289.23,3971.28,1652,1692,4.931,0,0,0,0,1,0,
28,4464.1,4029.23,4363.59,4172.82,4099.49,3565.13,4426.67,4453.33,4721.03,4512.31,4534.87,4344.1,4293.33,3985.64,1653,1692,4.938,0,0,0,0,1,0,
29,4464.1,4026.67,4364.1,4168.21,4084.62,3554.36,4422.05,4443.59,4711.79,4500.51,4538.97,4341.03,4291.79,3987.18,1653,1691,4.946,0,0,0,0,1,0,
30,4461.54,4029.74,4364.1,4163.59,4072.82,3558.97,4423.08,4445.64,4710.26,4487.69,4535.38,4343.59,4291.28,3984.1,1653,1693,4.954,0,0,0,0,1,0,
31,4462.56,4030.77,4369.74,4169.74,4086.15,3571.79,4429.23,4459.49,4718.46,4491.79,4541.54,4351.79,4296.41,3985.13,1653,1692,4.962,0,0,0,0,1,0,
32,4459.49,4022.56,4372.82,4169.74,4086.15,3576.41,4434.87,4462.56,4720.51,4506.67,4543.59,4352.31,4296.92,3987.18,1653,1693,4.97,0,0,0,0,1,0,
33,4462.56,4023.08,4372.82,4166.15,4076.92,3574.36,4436.92,4458.97,4718.97,4511.79,4541.03,4349.74,4298.97,3993.85,1655,1692,4.978,0,0,0,0,1,0,
34,4473.33,4032.31,4372.31,4172.31,4080,3572.31,4432.82,4458.97,4721.03,4506.67,4542.56,4349.23,4303.08,3994.36,1653,1692,4.985,0,0,0,0,1,0,
35,4477.95,4033.33,4373.85,4181.54,4084.1,3571.79,4428.72,4460,4724.62,4510.26,4541.54,4353.33,4304.1,3988.72,1654,1692,4.993,0,0,0,0,1,0,
36,4475.38,4026.67,4375.38,4175.9,4080.51,3572.82,4428.72,4460,4731.79,4512.82,4536.92,4359.49,4304.1,3988.72,1654,1691,5.001,0,0,0,0,1,0,
37,4474.87,4028.21,4373.33,4165.13,4078.46,3573.33,4427.69,4462.05,4732.82,4507.18,4538.46,4358.46,4301.03,3991.79,1654,1691,5.009,0,0,0,0,1,0,
38,4471.79,4029.74,4371.79,4168.72,4080,3571.28,4426.15,4453.85,4720.51,4505.13,4542.56,4351.28,4295.38,3990.26,1654,1690,5.017,0,0,0,0,1,0,
39,4460.51,4022.56,4372.31,4173.33,4083.08,3569.74,4425.64,4441.03,4711.28,4502.05,4538.46,4348.21,4293.85,3987.18,1656,1692,5.024,0,0,0,0,1,0,
40,4456.41,4027.18,4373.85,4167.69,4092.31,3570.26,4425.64,4444.1,4717.44,4505.13,4538.46,4352.31,4296.41,3986.15,1655,1691,5.032,0,0,0,0,1,0,
41,4471.79,4044.1,4377.95,4174.87,4106.67,3574.87,4430.26,4458.97,4727.18,4519.49,4555.38,4358.46,4304.1,3993.33,1655,1693,5.04,0,0,0,0,1,0,
42,4480,4046.67,4382.56,4187.18,4097.95,3580,4433.33,4462.05,4727.69,4516.92,4557.95,4358.97,4311.79,4000.51,1656,1691,5.048,0,0,0,0,1,0,
43,4463.59,4035.9,4378.46,4179.49,4075.38,3576.41,4429.74,4453.33,4719.49,4502.05,4541.54,4353.33,4305.64,3991.28,1654,1694,5.056,0,0,0,0,1,0,
44,4455.38,4033.85,4371.79,4168.72,4080.51,3570.26,4426.67,4453.33,4715.38,4503.08,4543.08,4352.31,4296.92,3981.54,1656,1693,5.063,0,0,0,0,1,0,
45,4459.49,4032.31,4371.79,4169.74,4096.41,3576.41,4430.26,4458.97,4721.03,4506.15,4548.21,4353.33,4296.41,3984.62,1654,1693,5.071,0,0,0,0,1,0,
46,4455.9,4025.64,4372.82,4171.28,4091.28,3586.67,4438.97,4463.08,4729.74,4504.62,4536.92,4350.26,4295.38,3988.21,1655,1693,5.079,0,0,0,0,1,0,
47,4461.54,4031.79,4372.82,4175.9,4090.26,3589.74,4444.62,4466.15,4735.38,4516.41,4539.49,4348.72,4298.97,3990.26,1655,1692,5.087,0,0,0,0,1,0,
48,4473.85,4040,4372.82,4181.03,4092.82,3584.62,4437.95,4464.62,4734.87,4519.49,4553.85,4354.36,4306.15,3989.74,1655,1692,5.095,0,0,0,0,1,0,
49,4469.74,4037.44,4373.85,4181.03,4082.05,3580.51,4430.77,4459.49,4732.31,4505.13,4556.41,4360.51,4305.13,3987.18,1655,1692,5.103,0,0,0,0,1,0,
50,4462.05,4033.85,4376.41,4181.03,4081.54,3577.44,4432.31,4458.97,4733.33,4505.13,4553.85,4360,4303.59,3993.85,1655,1692,5.11,0,0,0,0,1,0,
51,4464.62,4036.41,4376.41,4178.46,4087.69,3576.41,4431.79,4461.03,4735.38,4523.59,4554.36,4354.36,4310.77,4003.08,1655,1692,5.118,0,0,0,0,1,0,
52,4460.51,4036.41,4369.23,4170.77,4085.13,3580,4426.67,4458.46,4732.82,4529.74,4552.31,4350.26,4310.26,3993.33,1655,1693,5.126,0,0,0,0,1,0,
53,4449.74,4029.23,4364.1,4167.18,4085.64,3578.97,4425.13,4455.9,4727.69,4516.41,4547.18,4346.67,4298.97,3976.41,1655,1692,5.134,0,0,0,0,1,0,
54,4443.08,4027.18,4362.56,4169.23,4086.15,3575.9,4425.64,4457.95,4725.64,4504.1,4537.95,4341.03,4293.85,3969.74,1654,1693,5.142,0,0,0,0,1,0,
55,4444.1,4031.28,4362.05,4171.28,4082.05,3575.9,4426.15,4458.46,4726.67,4505.64,4534.87,4340.51,4296.41,3973.85,1656,1691,5.15,0,0,0,0,1,0,
56,4445.64,4030.26,4363.08,4170.77,4086.15,3576.92,4427.18,4452.31,4723.08,4510.26,4540,4342.56,4297.44,3978.97,1654,1689,5.157,0,0,0,0,1,0,
57,4442.56,4028.72,4365.13,4167.69,4096.41,3582.56,4426.67,4447.69,4716.92,4503.59,4538.46,4340.51,4293.33,3976.92,1656,1690,5.165,0,0,0,0,1,0,
58,4447.69,4034.36,4367.18,4172.82,4086.67,3589.23,4433.33,4454.87,4722.05,4499.49,4538.46,4342.05,4290.77,3973.85,1656,1690,5.174,0,0,0,0,1,0,
59,4461.03,4040,4370.77,4187.69,4082.05,3592.31,4443.08,4463.08,4734.87,4513.33,4547.69,4351.28,4299.49,3981.54,1655,1692,5.181,0,0,0,0,1,0,
60,4464.62,4040.51,4374.36,4186.67,4106.67,3587.69,4434.36,4461.54,4740,4529.74,4555.38,4356.92,4308.21,3992.31,1656,1692,5.189,0,0,0,0,1,0,
61,4460,4038.97,4374.36,4172.31,4111.28,3578.46,4417.95,4457.44,4733.85,4524.1,4552.31,4357.44,4306.15,3991.28,1655,1692,5.196,0,0,0,0,1,0,
62,4455.9,4035.38,4374.36,4172.31,4088.21,3572.82,4419.49,4456.41,4726.67,4506.15,4543.59,4357.44,4303.59,3985.64,1656,1691,5.204,0,0,0,0,1,0,
63,4454.87,4032.31,4376.92,4183.08,4082.56,3582.05,4429.23,4456.41,4727.69,4508.72,4544.62,4355.9,4306.15,3985.13,1655,1692,5.212,0,0,0,0,1,0,
64,4457.95,4036.41,4380,4183.08,4095.9,3590.26,4428.72,4460,4734.36,4521.54,4554.36,4357.44,4310.77,3990.26,1655,1693,5.22,0,0,0,0,1,0,
65,4460.51,4042.56,4383.59,4183.08,4093.33,3588.72,4426.67,4464.62,4736.41,4524.62,4559.49,4362.56,4310.26,3993.33,1654,1695,5.228,0,0,0,0,1,0,
66,4458.97,4041.54,4384.62,4185.13,4084.62,3590.77,4430.26,4461.54,4729.23,4518.97,4550.77,4361.03,4302.05,3986.67,1654,1694,5.236,0,0,0,0,1,0,
67,4458.97,4036.92,4378.46,4177.44,4092.31,3588.72,4426.15,4449.74,4717.95,4510.77,4539.49,4352.31,4292.82,3975.38,1654,1695,5.243,0,0,0,0,1,0,
68,4454.36,4034.87,4377.95,4175.38,4105.64,3583.08,4413.33,4441.03,4715.38,4505.13,4537.44,4349.74,4291.79,3971.79,1654,1695,5.251,0,0,0,0,1,0,
69,4446.15,4034.36,4380.51,4184.1,4106.67,3585.64,4413.33,4442.56,4720,4505.64,4540.51,4350.26,4294.87,3975.38,1653,1695,5.259,0,0,0,0,1,0,
70,4444.1,4037.95,4376.41,4187.69,4104.62,3589.74,4426.67,4450.77,4720.51,4510.26,4540.51,4350.77,4293.33,3972.82,1654,1694,5.267,0,0,0,0,1,0,
71,4444.1,4044.1,4374.87,4182.56,4112.82,3588.72,4432.31,4459.49,4725.64,4509.23,4539.49,4352.82,4295.38,3972.31,1654,1694,5.275,0,0,0,0,1,0,
72,4437.95,4035.9,4369.74,4172.31,4096.92,3587.69,4427.69,4461.03,4727.69,4500.51,4536.41,4345.64,4293.33,3975.38,1654,1692,5.282,0,0,0,0,1,0,
73,4442.05,4027.69,4360.51,4166.67,4074.87,3588.72,4430.26,4458.97,4722.56,4500,4533.85,4339.49,4291.28,3974.87,1652,1693,5.29,0,0,0,0,1,0,
74,4461.03,4036.41,4364.1,4173.33,4095.38,3589.74,4434.36,4462.05,4726.67,4522.56,4546.15,4346.67,4304.1,3980,1654,1692,5.298,0,0,0,0,1,0,
75,4461.54,4036.41,4369.74,4173.85,4114.36,3586.67,4429.23,4460.51,4730.77,4530.26,4553.85,4349.23,4309.23,3984.1,1653,1691,5.306,0,0,0,0,1,0,
76,4447.18,4031.28,4365.13,4168.21,4101.03,3584.1,4425.13,4452.82,4723.59,4511.28,4541.54,4342.05,4297.44,3979.49,1654,1693,5.314,0,0,0,0,1,0,
77,4449.74,4037.44,4366.67,4170.26,4091.79,3586.67,4428.21,4453.33,4718.46,4504.1,4534.36,4340.51,4296.92,3978.97,1654,1691,5.322,0,0,0,0,1,0,
78,4462.05,4040,4373.33,4172.82,4097.44,3589.23,4429.23,4460.51,4723.08,4509.74,4544.62,4346.67,4309.74,3983.08,1654,1692,5.329,0,0,0,0,1,0,
79,4461.03,4037.44,4373.85,4173.85,4101.54,3589.23,4427.18,4462.56,4730.77,4512.31,4553.33,4349.74,4311.79,3982.56,1655,1691,5.337,0,0,0,0,1,0,
80,4454.87,4042.05,4377.44,4182.56,4102.05,3589.74,4428.21,4460,4733.85,4513.33,4551.28,4350.26,4307.18,3986.67,1655,1692,5.345,0,0,0,0,1,0,
81,4455.9,4041.54,4381.54,4190.26,4102.05,3583.59,4428.21,4461.54,4728.21,4511.28,4550.26,4350.26,4307.18,3992.31,1655,1690,5.353,0,0,0,0,1,0,
82,4458.46,4034.87,4376.41,4180.51,4101.03,3576.92,4426.15,4458.46,4722.05,4505.64,4552.82,4350.26,4304.62,3990.26,1654,1692,5.361,0,0,0,0,1,0,
83,4459.49,4035.38,4370.26,4167.18,4097.95,3574.87,4424.62,4449.23,4720,4513.33,4552.31,4348.72,4305.13,3990.26,1655,1692,5.369,0,0,0,0,1,0,
84,4459.49,4036.41,4373.33,4171.79,4092.31,3570.77,4424.1,4449.23,4720.51,4520,4549.74,4351.79,4308.72,3991.28,1654,1691,5.376,0,0,0,0,1,0,
85,4460.51,4033.85,4381.54,4185.64,4089.74,3576.92,4425.13,4458.46,4727.69,4512.31,4554.87,4361.54,4310.77,3990.26,1655,1691,5.384,0,0,0,0,1,0,
86,4459.49,4035.38,4384.1,4183.08,4082.56,3586.15,4426.15,4461.54,4735.38,4511.79,4558.97,4362.56,4309.23,3995.38,1654,1691,5.393,0,0,0,0,1,0,
87,4451.79,4035.9,4380,4169.23,4075.38,3581.03,4425.64,4460,4734.36,4525.13,4554.87,4357.44,4308.72,3997.95,1654,1691,5.4,0,0,0,0,1,0,
88,4452.31,4037.44,4378.46,4171.28,4089.74,3579.49,4426.15,4460,4729.23,4528.21,4550.26,4357.95,4310.77,3990.26,1655,1690,5.408,0,0,0,0,1,0,
89,4461.03,4039.49,4382.56,4178.97,4098.46,3590.26,4426.67,4459.49,4725.64,4510.26,4551.28,4359.49,4311.28,3986.15,1654,1691,5.415,0,0,0,0,1,0,
90,4462.05,4037.44,4380,4172.31,4094.36,3591.79,4420,4458.97,4726.67,4507.18,4552.82,4357.95,4309.74,3990.77,1656,1690,5.423,0,0,0,0,1,0,
91,4457.95,4038.46,4371.79,4169.74,4102.56,3585.13,4416.41,4457.95,4727.69,4521.54,4549.74,4355.38,4310.77,3991.79,1654,1690,5.431,0,0,0,0,1,0,
92,4457.44,4044.62,4374.36,4180.51,4101.54,3585.64,4422.56,4456.41,4727.69,4517.44,4549.23,4356.41,4311.79,3988.72,1655,1690,5.439,0,0,0,0,1,0,
93,4457.44,4045.64,4380.51,4185.13,4084.1,3586.67,4427.18,4458.97,4731.28,4505.13,4554.36,4358.46,4309.74,3989.74,1655,1689,5.447,0,0,0,0,1,0,
94,4459.49,4044.1,4373.85,4182.05,4093.85,3585.64,4425.64,4461.03,4731.28,4514.36,4559.49,4356.41,4313.85,3989.74,1655,1689,5.455,0,0,0,0,1,0,
95,4465.13,4046.67,4372.82,4187.69,4118.97,3586.67,4426.67,4458.97,4727.18,4530.26,4557.44,4352.31,4319.49,3990.77,1654,1690,5.462,0,0,0,0,1,0,
96,4462.56,4044.1,4380,4188.21,4098.97,3586.67,4427.18,4456.41,4727.69,4520.51,4542.56,4351.28,4311.28,3987.69,1656,1691,5.47,0,0,0,0,1,0,
97,4457.95,4040,4376.41,4180,4074.36,3585.64,4425.64,4458.46,4726.15,4507.18,4534.87,4349.74,4303.08,3982.05,1655,1690,5.478,0,0,0,0,1,0,
98,4456.92,4042.56,4369.74,4179.49,4091.28,3584.62,4426.67,4461.03,4723.08,4505.13,4550.26,4348.72,4305.13,3982.56,1655,1693,5.486,0,0,0,0,1,0,
99,4452.82,4041.54,4368.72,4181.54,4094.36,3586.15,4428.72,4461.03,4727.18,4509.74,4554.87,4349.74,4302.56,3987.18,1656,1691,5.494,0,0,0,0,1,0,
100,4451.28,4038.46,4367.69,4177.95,4078.97,3588.72,4430.26,4461.03,4733.33,4519.49,4538.46,4350.26,4302.05,3989.23,1655,1693,5.501,0,0,0,0,1,0,
101,4460,4044.62,4373.85,4179.49,4093.85,3588.72,4429.74,4460,4730.26,4521.54,4539.49,4351.79,4311.79,3989.23,1656,1692,5.509,0,0,0,0,1,0,
102,4464.62,4055.38,4382.56,4187.18,4116.92,3587.69,4428.21,4460,4727.18,4520.51,4557.95,4355.9,4314.36,3991.28,1654,1693,5.517,0,0,0,0,1,0,
103,4461.54,4057.95,4381.03,4189.23,4112.82,3589.74,4428.72,4461.54,4727.18,4518.97,4561.54,4358.97,4311.28,3990.77,1656,1693,5.525,0,0,0,0,1,0,
104,4460,4049.74,4373.85,4183.59,4094.87,3588.72,4428.72,4460.51,4722.56,4507.69,4556.92,4357.44,4312.31,3988.21,1654,1693,5.533,0,0,0,0,1,0,
105,4459.49,4042.56,4371.28,4183.08,4088.21,3584.62,4424.1,4456.92,4724.1,4501.54,4558.97,4353.33,4310.26,3989.23,1655,1693,5.541,0,0,0,0,1,0,
106,4460,4048.21,4376.92,4186.15,4097.95,3586.67,4421.03,4458.46,4733.85,4518.46,4559.49,4358.46,4312.31,3992.31,1655,1693,5.548,0,0,0,0,1,0,
107,4464.62,4056.41,4385.13,4186.67,4106.15,3588.21,4419.49,4463.59,4737.44,4532.31,4557.44,4367.69,4323.59,3998.97,1655,1693,5.556,0,0,0,0,1,0,
108,4461.54,4046.67,4377.95,4182.56,4089.74,3578.97,4413.85,4461.03,4732.31,4518.97,4555.38,4362.05,4318.97,4001.03,1654,1692,5.564,0,0,0,0,1,0,
109,4454.36,4034.87,4368.72,4179.49,4077.95,3576.92,4414.36,4453.85,4729.74,4511.79,4552.82,4351.28,4307.18,3993.85,1656,1693,5.572,0,0,0,0,1,0,
110,4463.08,4044.62,4375.9,4182.05,4094.87,3588.21,4426.15,4456.92,4734.87,4523.08,4554.36,4358.46,4312.82,3994.36,1656,1691,5.58,0,0,0,0,1,0,
111,4474.87,4054.36,4380,4184.62,4100.51,3592.82,4431.28,4462.56,4734.36,4518.97,4556.92,4365.13,4318.97,4002.05,1654,1693,5.587,0,0,0,0,1,0,
112,4466.67,4047.18,4372.31,4184.62,4084.62,3586.15,4424.62,4458.97,4727.18,4500.51,4554.87,4359.49,4311.28,3994.87,1656,1692,5.595,0,0,0,0,1,0,
113,4458.97,4047.69,4375.9,4186.67,4090.77,3587.18,4426.67,4457.44,4726.67,4508.21,4554.36,4362.05,4307.69,3989.23,1655,1692,5.603,0,0,0,0,1,0,
114,4462.05,4052.82,4385.13,4190.26,4106.67,3591.79,4428.72,4461.54,4733.33,4529.74,4555.38,4368.72,4311.28,3997.44,1655,1691,5.611,0,0,0,0,1,0,
115,4466.67,4050.77,4382.05,4188.72,4092.31,3581.54,4415.9,4460.51,4733.33,4524.1,4553.85,4365.64,4313.85,3995.38,1655,1692,5.619,0,0,0,0,1,0,
116,4470.26,4049.23,4377.95,4183.59,4078.97,3572.31,4412.82,4458.97,4731.28,4515.38,4560,4365.13,4316.92,3990.26,1655,1692,5.627,0,0,0,0,1,0,
117,4467.69,4048.21,4378.97,4185.64,4091.79,3578.97,4424.62,4461.54,4734.87,4526.15,4565.64,4369.23,4315.38,3996.92,1655,1691,5.634,0,0,0,0,1,0,
118,4458.97,4043.59,4375.38,4184.62,4097.44,3588.72,4428.72,4461.03,4736.41,4524.1,4551.79,4361.03,4310.26,3993.85,1655,1691,5.642,0,0,0,0,1,0,
119,4454.36,4041.54,4366.67,4175.38,4087.18,3588.72,4426.67,4459.49,4733.85,4502.05,4547.18,4349.74,4308.21,3984.1,1654,1691,5.65,0,0,0,0,1,0,
120,4452.82,4041.54,4361.54,4172.82,4086.67,3588.21,4430.77,4458.97,4732.82,4493.85,4553.85,4349.74,4307.18,3987.18,1654,1690,5.658,0,0,0,0,1,0,
121,4452.82,4040.51,4367.18,4180.51,4088.21,3588.21,4428.72,4456.41,4731.79,4509.74,4544.62,4352.82,4306.15,3985.13,1654,1690,5.666,0,0,0,0,1,0,
122,4457.44,4044.62,4373.33,4185.13,4091.28,3588.72,4424.62,4455.38,4731.28,4525.64,4539.49,4354.36,4307.69,3973.85,1654,1690,5.673,0,0,0,0,1,0,
123,4462.56,4052.31,4374.36,4184.62,4104.1,3594.87,4431.28,4458.46,4734.36,4526.67,4554.36,4358.46,4316.92,3983.08,1654,1691,5.681,0,0,0,0,1,0,
124,4463.08,4053.33,4374.36,4186.15,4102.05,3594.36,4432.82,4460.51,4737.44,4517.44,4560.51,4360,4322.05,4001.03,1655,1691,5.689,0,0,0,0,1,0,
125,4455.38,4043.59,4372.31,4186.67,4085.64,3585.13,4422.56,4456.92,4732.82,4512.82,4553.33,4356.92,4312.82,3996.41,1654,1691,5.697,0,0,0,0,1,0,
126,4452.31,4045.13,4373.85,4185.13,4089.74,3585.64,4423.59,4461.03,4738.46,4520.51,4554.36,4363.08,4312.31,3990.77,1655,1691,5.705,0,0,0,0,1,0,
127,4465.64,4057.95,4381.54,4187.18,4100,3596.41,4436.92,4472.31,4751.79,4528.21,4561.03,4372.31,4327.69,4006.67,1655,1690,5.713,0,0,0,0,1,0,
128,4467.69,4048.72,4380.51,4187.18,4081.54,3588.21,4430.77,4468.72,4744.1,4520,4554.87,4366.67,4324.62,4008.21,1656,1692,5.72,0,0,0,0,1,0,
0,4447.69,4030.77,4370.26,4182.56,4067.69,3569.23,4416.41,4455.38,4727.18,4506.15,4542.05,4355.9,4300.51,3984.62,1656,1691,5.728,0,0,0,0,1,0,
1,4442.56,4032.31,4366.67,4177.95,4082.56,3571.79,4420.51,4453.85,4728.21,4501.03,4535.38,4350.77,4291.28,3969.23,1655,1693,5.736,0,0,0,0,1,0,
2,4456.92,4037.44,4369.23,4181.03,4091.79,3588.72,4430.77,4459.49,4734.87,4504.1,4540,4350.77,4301.54,3972.82,1657,1691,5.744,0,0,0,0,1,0,
3,4461.54,4039.49,4373.33,4187.18,4090.77,3591.79,4430.77,4458.97,4733.85,4517.44,4550.26,4355.38,4310.77,3983.59,1656,1691,5.752,0,0,0,0,1,0,
4,4457.44,4047.69,4379.49,4187.18,4098.46,3587.18,4428.21,4456.41,4732.31,4525.64,4555.38,4360.51,4315.9,3994.87,1657,1692,5.76,0,0,0,0,1,0,
5,4465.13,4052.82,4381.03,4193.85,4101.03,3593.85,4432.82,4460.51,4738.97,4521.54,4554.87,4365.13,4323.08,4002.05,1656,1691,5.767,0,0,0,0,1,0,
6,4472.31,4051.79,4381.54,4200,4092.31,3601.03,4434.36,4466.67,4748.72,4521.54,4554.36,4366.67,4328.21,4000.51,1656,1692,5.775,0,0,0,0,1,0,
7,4464.62,4049.23,4377.44,4189.74,4089.74,3587.69,4425.13,4463.59,4744.62,4526.15,4555.38,4361.03,4323.08,3994.87,1656,1691,5.783,0,0,0,0,1,0,
8,4456.92,4042.05,4366.67,4178.46,4092.82,3573.85,4416.92,4455.9,4735.38,4521.03,4551.79,4352.31,4318.46,3989.23,1656,1692,5.791,0,0,0,0,1,0,
9,4460,4040,4364.62,4181.03,4091.28,3582.05,4422.56,4462.56,4742.05,4516.41,4551.28,4354.87,4321.03,3987.69,1655,1690,5.799,0,0,0,0,1,0,
10,4467.18,4051.28,4375.38,4189.23,4090.77,3592.82,4429.74,4475.38,4751.28,4531.79,4563.59,4363.59,4326.67,3994.87,1654,1691,5.806,0,0,0,0,1,0,
11,4470.77,4061.54,4384.1,4194.87,4088.72,3588.72,4428.72,4473.85,4747.69,4542.05,4572.31,4368.21,4331.79,4005.64,1655,1690,5.814,0,0,0,0,1,0,
12,4472.31,4057.44,4384.62,4200.51,4084.1,3586.67,4428.21,4464.1,4741.54,4529.74,4563.59,4367.18,4330.77,4005.64,1654,1692,5.822,0,0,0,0,1,0,
13,4472.31,4049.23,4383.08,4198.46,4086.67,3588.21,4429.23,4462.05,4739.49,4516.92,4554.36,4364.62,4325.13,4001.03,1655,1691,5.83,0,0,0,0,1,0,
14,4467.69,4049.23,4383.08,4188.21,4097.44,3588.21,4428.21,4463.08,4736.41,4521.54,4554.87,4364.62,4323.59,4005.13,1653,1691,5.838,0,0,0,0,1,0,
15,4463.59,4055.9,4384.1,4185.13,4105.64,3588.21,4429.23,4462.05,4735.38,4526.67,4554.36,4368.72,4327.69,4007.18,1655,1692,5.846,0,0,0,0,1,0,
16,4464.62,4060,4386.15,4192.31,4098.97,3587.69,4427.69,4459.49,4732.82,4524.1,4556.41,4369.23,4327.69,4001.03,1655,1691,5.853,0,0,0,0,1,0,
17,4464.62,4051.28,4384.62,4194.36,4076.41,3586.15,4420,4452.82,4727.18,4522.56,4550.77,4361.03,4315.9,3991.28,1654,1692,5.861,0,0,0,0,1,0,
18,4460.51,4041.54,4377.44,4186.15,4071.28,3586.67,4417.95,4451.28,4727.18,4516.92,4536.92,4354.36,4308.72,3987.69,1654,1691,5.869,0,0,0,0,1,0,
19,4460.51,4044.1,4373.85,4184.1,4093.33,3586.67,4426.15,4458.97,4735.38,4518.97,4545.13,4357.44,4314.36,3989.74,1654,1692,5.877,0,0,0,0,1,0,
20,4457.95,4042.56,4372.31,4186.15,4095.9,3586.15,4430.26,4462.56,4736.92,4521.03,4556.92,4357.95,4313.85,3988.21,1654,1691,5.885,0,0,0,0,1,0,
21,4451.79,4035.9,4371.28,4182.56,4076.92,3586.15,4427.18,4459.49,4732.82,4508.72,4544.62,4354.36,4306.15,3983.59,1654,1691,5.892,0,0,0,0,1,0,
22,4456.41,4043.08,4376.92,4182.56,4083.08,3587.18,4427.18,4461.03,4738.46,4511.28,4542.56,4363.59,4312.82,3989.23,1655,1689,5.9,0,0,0,0,1,0,
23,4461.03,4048.72,4383.08,4185.64,4097.44,3586.15,4428.21,4462.56,4741.54,4530.77,4555.38,4368.72,4323.59,4000,1654,1690,5.909,0,0,0,0,1,0,
24,4456.92,4046.67,4381.03,4183.59,4088.72,3585.13,4426.67,4459.49,4737.44,4537.44,4551.79,4359.49,4324.1,4003.08,1656,1690,5.916,0,0,0,0,1,0,
25,4465.13,4054.87,4384.62,4190.26,4078.46,3589.23,4430.26,4461.03,4741.54,4533.85,4549.74,4361.54,4324.1,4003.08,1654,1690,5.924,0,0,0,0,1,0,
26,4472.82,4057.95,4391.28,4201.03,4081.54,3589.23,4430.77,4457.95,4740,4529.23,4555.38,4370.77,4322.05,4000.51,1655,1691,5.932,0,0,0,0,1,0,
27,4462.56,4047.18,4383.08,4193.33,4085.64,3583.08,4421.54,4444.1,4721.03,4510.26,4544.62,4363.59,4310.77,3992.31,1655,1689,5.939,0,0,0,0,1,0,
28,4461.03,4050.26,4376.41,4182.05,4085.13,3583.08,4417.95,4439.49,4716.41,4495.38,4534.87,4355.38,4308.21,3988.21,1655,1690,5.947,0,0,0,0,1,0,
29,4474.87,4063.59,4387.18,4191.79,4090.77,3589.23,4425.64,4453.33,4732.82,4509.23,4545.13,4363.59,4319.49,3996.41,1656,1687,5.955,0,0,0,0,1,0,
30,4477.95,4063.08,4391.79,4201.03,4096.92,3587.69,4429.23,4460,4735.38,4522.56,4556.41,4372.31,4328.21,4005.64,1654,1689,5.963,0,0,0,0,1,0,
31,4472.82,4057.95,4387.18,4196.41,4095.38,3584.1,4426.15,4459.49,4733.33,4523.08,4556.92,4372.31,4326.67,4006.15,1655,1689,5.971,0,0,0,0,1,0,
32,4476.41,4061.54,4389.74,4200,4097.44,3593.33,4430.26,4471.79,4747.18,4530.26,4553.85,4373.33,4328.21,4006.67,1655,1690,5.982,0,0,0,0,1,0,
33,4473.85,4060.51,4391.28,4202.56,4095.38,3599.49,4435.38,4478.46,4753.85,4542.56,4555.38,4370.26,4331.79,4007.69,1655,1689,5.986,0,0,0,0,1,0,
34,4456.92,4050.77,4382.56,4189.74,4084.62,3591.79,4429.74,4467.18,4745.13,4539.49,4556.41,4361.54,4322.56,3998.97,1653,1690,5.994,0,0,0,0,1,0,
35,4441.54,4043.59,4371.28,4180,4085.13,3585.13,4424.62,4458.46,4735.9,4525.64,4546.67,4354.87,4311.28,3986.15,1655,1690,6.002,0,0,0,0,1,0,
36,4447.18,4047.18,4367.69,4185.13,4091.28,3591.79,4425.64,4456.41,4729.23,4520.51,4541.03,4353.33,4309.74,3986.67,1653,1691,6.01,0,0,0,0,1,0,
37,4460.51,4050.77,4374.87,4187.18,4086.15,3596.41,4427.69,4454.36,4728.72,4521.54,4550.77,4355.9,4311.28,3990.26,1653,1693,6.018,0,0,0,0,1,0,
38,4456.41,4049.74,4381.03,4184.1,4089.23,3589.74,4426.15,4455.9,4732.82,4521.54,4554.36,4361.54,4315.38,3991.28,1653,1692,6.025,0,0,0,0,1,0,
39,4457.95,4055.38,4383.59,4192.31,4106.67,3586.15,4426.15,4460,4732.31,4520.51,4549.74,4366.67,4324.1,3999.49,1652,1694,6.033,0,0,0,0,1,0,
40,4472.31,4064.1,4385.64,4204.62,4111.28,3590.26,4427.18,4460.51,4731.28,4521.03,4553.85,4370.26,4328.72,4008.21,1652,1692,6.041,0,0,0,0,1,0,
41,4469.74,4061.54,4384.62,4201.54,4092.82,3591.79,4425.64,4455.38,4730.77,4522.05,4552.82,4369.74,4321.03,4004.62,1652,1692,6.049,0,0,0,0,1,0,
42,4458.46,4050.26,4380.51,4188.72,4080.51,3589.23,4426.15,4451.79,4728.21,4523.59,4544.1,4367.18,4314.36,3999.49,1652,1692,6.057,0,0,0,0,1,0,
43,4461.03,4044.1,4381.03,4184.62,4095.9,3588.21,4426.15,4450.77,4726.67,4523.59,4550.77,4365.13,4311.79,3995.38,1652,1692,6.064,0,0,0,0,1,0,
44,4461.03,4044.62,4381.54,4185.64,4097.95,3591.28,4423.59,4449.23,4727.69,4519.49,4551.28,4361.03,4311.28,3989.74,1652,1691,6.072,0,0,0,0,1,0,
45,4460.51,4048.21,4379.49,4185.64,4074.36,3590.26,4423.59,4451.79,4729.74,4521.03,4539.49,4356.41,4315.9,3993.33,1652,1690,6.081,0,0,0,0,1,0,
46,4468.21,4051.79,4382.56,4186.67,4084.62,3587.18,4426.67,4459.49,4734.87,4524.62,4541.03,4357.95,4320.51,4001.54,1653,1689,6.088,0,0,0,0,1,0,
47,4465.64,4051.79,4381.54,4187.18,4113.33,3590.26,4426.15,4456.92,4736.41,4517.44,4546.15,4355.9,4315.9,3994.87,1653,1690,6.096,0,0,0,0,1,0,
48,4456.92,4045.64,4371.28,4184.62,4093.85,3585.13,4417.44,4443.59,4725.13,4503.08,4536.92,4348.21,4306.15,3983.59,1655,1688,6.104,0,0,0,0,1,0,
49,4458.46,4042.56,4368.72,4182.56,4068.72,3573.85,4410.77,4439.49,4719.49,4504.62,4532.82,4349.23,4307.69,3989.23,1654,1688,6.111,0,0,0,0,1,0,
50,4461.54,4050.77,4373.33,4184.1,4084.62,3581.03,4416.41,4446.15,4730.26,4520.51,4544.62,4355.9,4314.36,4001.03,1654,1687,6.119,0,0,0,0,1,0,
51,4461.54,4051.28,4374.36,4184.1,4091.79,3590.26,4418.97,4450.77,4736.92,4528.21,4556.41,4362.05,4312.82,4001.54,1654,1687,6.127,0,0,0,0,1,0,
52,4463.08,4044.62,4374.87,4186.67,4078.97,3581.03,4416.41,4449.23,4731.79,4524.1,4555.9,4363.08,4310.77,4002.05,1655,1686,6.135,0,0,0,0,1,0,
53,4463.08,4047.69,4376.92,4189.23,4084.1,3578.46,4419.49,4448.72,4732.31,4520.51,4542.56,4360.51,4315.38,4003.08,1653,1686,6.143,0,0,0,0,1,0,
54,4457.95,4050.77,4374.87,4186.67,4089.74,3581.03,4418.97,4446.67,4732.82,4520.51,4536.92,4356.92,4317.44,3996.41,1655,1686,6.15,0,0,0,0,1,0,
55,4456.92,4043.08,4367.69,4183.08,4079.49,3572.31,4413.33,4447.69,4728.21,4520,4542.05,4352.31,4310.77,3988.21,1652,1686,6.158,0,0,0,0,1,0,
56,4458.46,4041.03,4363.08,4181.54,4084.1,3576.41,4418.97,4454.36,4732.31,4519.49,4542.05,4348.21,4307.69,3985.64,1653,1687,6.166,0,0,0,0,1,0,
57,4452.82,4045.13,4364.1,4181.54,4089.23,3588.72,4422.56,4453.85,4734.87,4515.38,4541.54,4348.72,4309.23,3985.13,1652,1684,6.174,0,0,0,0,1,0,
58,4447.69,4043.59,4364.62,4181.03,4068.21,3581.03,4414.87,4444.62,4727.18,4505.13,4541.54,4349.74,4307.18,3988.21,1649,1686,6.182,0,0,0,0,1,0,
59,4453.85,4041.03,4367.18,4181.54,4065.13,3569.74,4410.77,4444.1,4729.23,4506.67,4537.44,4348.21,4307.18,3989.23,1651,1684,6.19,0,0,0,0,1,0,
60,4462.56,4048.72,4372.82,4184.62,4094.87,3577.44,4413.33,4454.36,4737.44,4521.03,4543.59,4353.85,4313.33,3991.79,1649,1685,6.197,0,0,0,0,1,0,
61,4461.03,4054.87,4375.9,4187.18,4096.41,3581.54,4413.85,4456.92,4734.87,4528.21,4551.79,4359.49,4313.33,3997.44,1650,1684,6.205,0,0,0,0,1,0,
62,4455.9,4046.67,4372.82,4185.64,4073.33,3576.41,4413.33,4451.79,4729.74,4524.1,4543.59,4353.85,4310.77,3995.38,1649,1684,6.214,0,0,0,0,1,0,
63,4459.49,4042.56,4374.87,4187.69,4084.1,3576.41,4420,4454.36,4734.36,4521.54,4543.59,4354.36,4315.9,3992.31,1650,1684,6.221,0,0,0,0,1,0,
64,4463.08,4049.74,4376.92,4187.18,4098.97,3580,4422.56,4460.51,4736.92,4524.1,4556.92,4360.51,4321.54,3996.92,1649,1685,6.229,0,0,0,0,1,0,
65,4454.36,4041.03,4364.62,4174.87,4077.95,3577.44,4416.41,4452.82,4729.23,4518.46,4551.79,4354.36,4314.36,3989.74,1650,1684,6.236,0,0,0,0,1,0,
66,4440,4025.13,4354.87,4164.1,4062.56,3572.82,4414.87,4438.97,4721.03,4510.77,4536.41,4340.51,4302.56,3973.33,1650,1684,6.244,0,0,0,0,1,0,
67,4438.46,4029.74,4360,4165.13,4078.46,3576.92,4418.97,4445.64,4724.1,4511.79,4536.92,4340.51,4306.15,3976.92,1650,1684,6.252,0,0,0,0,1,0,
68,4452.82,4044.62,4366.67,4172.82,4087.69,3585.64,4422.56,4458.97,4735.9,4524.62,4545.64,4348.21,4319.49,3991.28,1651,1683,6.26,0,0,0,0,1,0,
69,4460,4046.15,4364.62,4181.03,4074.87,3589.74,4425.13,4460,4741.54,4537.95,4548.21,4351.28,4320,3994.36,1651,1686,6.268,0,0,0,0,1,0,
70,4449.74,4041.03,4363.59,4183.08,4075.38,3581.03,4418.97,4456.92,4738.97,4532.31,4543.59,4349.74,4308.72,3987.18,1652,1685,6.276,0,0,0,0,1,0,
71,4443.59,4042.56,4366.15,4180.51,4093.33,3570.26,4410.77,4456.92,4736.92,4518.97,4539.49,4349.23,4306.15,3981.54,1651,1686,6.283,0,0,0,0,1,0,
72,4454.87,4048.21,4367.69,4184.62,4096.41,3578.46,4418.46,4460.51,4740.51,4523.08,4541.03,4351.79,4311.28,3986.15,1652,1686,6.291,0,0,0,0,1,0,
73,4463.08,4047.18,4366.15,4185.13,4080,3588.72,4428.72,4461.54,4741.54,4532.82,4544.1,4353.33,4310.77,3992.31,1651,1685,6.299,0,0,0,0,1,0,
74,4453.85,4042.05,4364.62,4174.87,4074.36,3583.08,4427.18,4461.03,4736.92,4521.54,4541.54,4350.26,4307.69,3984.1,1651,1684,6.307,0,0,0,0,1,0,
75,4440,4035.38,4365.13,4166.67,4072.82,3571.28,4420.51,4461.03,4731.28,4504.1,4536.41,4342.56,4300.51,3971.79,1651,1684,6.315,0,0,0,0,1,0,
76,4440,4031.79,4364.62,4165.64,4063.59,3571.28,4414.87,4454.87,4729.74,4504.62,4534.36,4336.92,4295.9,3974.87,1652,1683,6.323,0,0,0,0,1,0,
77,4447.18,4037.44,4364.62,4171.79,4076.92,3581.03,4420,4449.74,4733.85,4520,4539.49,4345.13,4305.13,3987.18,1651,1682,6.33,0,0,0,0,1,0,
78,4446.15,4043.59,4366.15,4180.51,4095.38,3587.69,4426.15,4447.18,4733.33,4526.15,4541.54,4352.31,4312.31,3989.74,1651,1683,6.338,0,0,0,0,1,0,
79,4447.18,4040,4365.64,4183.08,4084.1,3588.21,4421.54,4445.64,4735.38,4519.49,4541.03,4348.21,4310.26,3984.1,1652,1682,6.346,0,0,0,0,1,0,
80,4458.46,4041.54,4369.23,4181.54,4082.56,3589.74,4420.51,4447.69,4744.62,4525.13,4549.23,4352.82,4313.33,3987.69,1652,1684,6.354,0,0,0,0,1,0,
81,4462.56,4055.38,4380,4187.69,4108.21,3593.85,4428.72,4457.44,4750.77,4533.85,4555.9,4363.08,4322.05,3997.95,1653,1684,6.362,0,0,0,0,1,0,
82,4460,4063.08,4382.56,4191.79,4113.33,3591.28,4435.38,4470.77,4752.31,4523.59,4556.92,4361.54,4321.03,3998.46,1652,1687,6.369,0,0,0,0,1,0,
83,4451.28,4051.79,4370.77,4179.49,4089.23,3585.64,4431.28,4467.18,4744.62,4516.41,4548.72,4351.28,4309.23,3981.54,1653,1688,6.377,0,0,0,0,1,0,
84,4445.64,4042.05,4365.64,4172.31,4082.56,3587.69,4431.28,4462.05,4738.46,4532.31,4542.05,4350.77,4309.23,3972.82,1652,1689,6.385,0,0,0,0,1,0,
85,4450.26,4047.69,4372.31,4181.54,4099.49,3590.77,4437.95,4472.82,4746.15,4542.56,4545.64,4356.92,4316.92,3985.64,1652,1689,6.393,0,0,0,0,1,0,
86,4449.74,4051.79,4373.85,4186.15,4090.77,3589.74,4434.87,4476.41,4749.23,4527.18,4546.15,4353.33,4313.33,3989.23,1651,1688,6.401,0,0,0,0,1,0,
87,4448.72,4050.26,4373.85,4180.51,4071.79,3588.21,4427.18,4467.69,4749.74,4518.46,4544.1,4352.31,4313.85,3987.69,1651,1687,6.409,0,0,0,0,1,0,
88,4459.49,4055.9,4382.05,4185.13,4093.33,3589.23,4430.26,4471.79,4761.03,4534.36,4552.31,4363.59,4326.67,4005.13,1650,1683,6.416,0,0,0,0,1,0,
89,4464.62,4058.46,4384.1,4191.28,4116.41,3591.28,4434.36,4478.97,4764.1,4545.64,4563.08,4367.69,4325.64,4013.33,1650,1682,6.424,0,0,0,0,1,0,
90,4455.9,4050.26,4374.36,4182.05,4094.87,3590.77,4429.74,4465.13,4749.74,4534.36,4555.38,4355.9,4314.87,3994.36,1650,1678,6.432,0,0,0,0,1,0,
91,4456.41,4044.62,4369.74,4176.41,4073.85,3592.82,4429.74,4457.44,4742.56,4524.1,4543.08,4349.74,4317.44,3985.64,1648,1678,6.44,0,0,0,0,1,0,
92,4463.08,4044.1,4369.23,4184.1,4085.13,3591.79,4432.31,4461.54,4743.59,4522.05,4541.03,4350.26,4316.92,3993.85,1650,1677,6.448,0,0,0,0,1,0,
93,4455.38,4042.56,4364.1,4184.62,4094.36,3587.69,4432.82,4461.54,4742.05,4520.51,4541.54,4343.08,4308.72,3990.26,1648,1676,6.455,0,0,0,0,1,0,
94,4446.15,4043.08,4363.08,4173.33,4090.77,3597.95,4440.51,4467.69,4747.69,4522.05,4541.03,4341.03,4308.72,3985.13,1650,1678,6.463,0,0,0,0,1,0,
95,4444.62,4041.54,4366.15,4167.18,4090.26,3607.69,4446.67,4478.46,4757.95,4527.18,4538.97,4344.62,4312.31,3982.05,1650,1678,6.471,0,0,0,0,1,0,
96,4445.13,4040.51,4363.08,4169.74,4096.41,3596.92,4445.13,4478.46,4758.97,4526.67,4538.97,4343.59,4310.77,3976.92,1651,1681,6.479,0,0,0,0,1,0,
97,4441.54,4038.97,4357.44,4169.74,4092.82,3583.59,4435.9,4466.67,4746.67,4511.79,4535.38,4333.85,4301.54,3969.23,1652,1683,6.487,0,0,0,0,1,0,
98,4440.51,4034.87,4356.41,4169.23,4074.36,3586.15,4429.23,4458.46,4734.36,4503.59,4534.36,4329.23,4291.79,3962.56,1653,1688,6.495,0,0,0,0,1,0,
99,4443.08,4036.41,4357.44,4169.23,4074.87,3589.23,4428.21,4458.97,4735.38,4508.72,4536.92,4336.41,4293.85,3965.13,1654,1692,6.502,0,0,0,0,1,0,
100,4443.08,4038.46,4355.38,4167.18,4081.54,3585.13,4426.15,4454.36,4734.87,4498.97,4534.87,4337.95,4299.49,3971.79,1655,1696,6.51,0,0,0,0,1,0,
101,4445.13,4035.38,4352.82,4167.18,4069.23,3585.13,4425.64,4450.77,4731.79,4490.26,4536.41,4333.33,4300,3975.9,1655,1699,6.518,0,0,0,0,1,0,
102,4448.72,4036.41,4358.46,4170.26,4067.69,3589.74,4427.18,4452.82,4734.87,4505.13,4540.51,4338.46,4301.03,3980.51,1656,1703,6.526,0,0,0,0,1,0,
103,4446.67,4033.33,4364.62,4168.72,4072.31,3586.67,4423.08,4447.69,4736.41,4512.31,4540.51,4346.67,4297.95,3980,1657,1705,6.534,0,0,0,0,1,0,
104,4442.56,4020.51,4365.64,4165.13,4066.67,3577.95,4421.54,4444.62,4735.38,4505.64,4539.49,4345.64,4292.82,3972.82,1657,1708,6.541,0,0,0,0,1,0,
105,4445.13,4016.41,4365.64,4168.21,4069.74,3577.44,4427.69,4456.41,4734.87,4510.26,4531.28,4342.05,4292.82,3974.87,1657,1708,6.549,0,0,0,0,1,0,
106,4442.05,4018.46,4365.13,4167.18,4071.79,3581.54,4429.74,4462.05,4733.33,4503.59,4520.51,4339.49,4287.69,3971.28,1658,1709,6.557,0,0,0,0,1,0,
107,4430.77,4015.9,4364.1,4161.03,4069.74,3583.08,4427.69,4459.49,4734.87,4491.79,4527.69,4340.51,4280.51,3956.41,1659,1708,6.565,0,0,0,0,1,0,
108,4430.77,4018.46,4364.62,4165.64,4073.85,3587.18,4429.23,4463.59,4738.97,4503.08,4536.92,4344.62,4283.59,3962.05,1660,1709,6.573,0,0,0,0,1,0,
109,4436.92,4021.03,4361.03,4169.23,4064.62,3581.54,4427.69,4456.41,4731.79,4505.13,4529.23,4340,4289.74,3974.87,1662,1707,6.582,0,0,0,0,1,0,
110,4437.44,4021.54,4354.87,4163.08,4056.92,3570.77,4424.1,4440,4723.59,4492.82,4528.21,4332.31,4291.79,3973.33,1661,1708,6.588,0,0,0,0,1,0,
111,4442.56,4030.26,4359.49,4166.67,4084.1,3581.03,4426.67,4443.08,4732.31,4502.05,4539.49,4337.44,4297.95,3975.38,1663,1708,6.596,0,0,0,0,1,0,
112,4447.69,4038.46,4365.64,4175.38,4103.08,3590.77,4423.08,4447.18,4737.95,4516.92,4540,4343.59,4298.97,3978.97,1663,1707,6.604,0,0,0,0,1,0,
113,4440,4040.51,4367.18,4173.33,4088.21,3575.9,4411.28,4432.82,4728.72,4509.23,4534.87,4341.03,4293.33,3969.23,1664,1708,6.612,0,0,0,0,1,0,
114,4442.56,4043.59,4370.77,4174.36,4078.46,3569.74,4411.28,4426.67,4725.64,4501.03,4535.38,4340.51,4298.46,3971.79,1665,1705,6.62,0,0,0,0,1,0,
115,4458.97,4044.62,4373.33,4181.54,4083.08,3584.1,4424.62,4438.46,4734.36,4502.05,4536.92,4346.15,4308.21,3988.72,1666,1703,6.628,0,0,0,0,1,0,
116,4463.59,4038.46,4372.31,4186.67,4084.1,3591.28,4430.26,4449.23,4737.44,4510.26,4546.15,4351.28,4311.28,3991.28,1667,1701,6.635,0,0,0,0,1,0,
117,4456.92,4032.82,4372.31,4182.56,4069.74,3587.18,4425.64,4453.85,4734.36,4519.49,4555.9,4351.28,4312.31,3986.67,1666,1699,6.643,0,0,0,0,1,0,
118,4453.33,4035.9,4374.87,4171.79,4065.64,3588.21,4430.26,4458.46,4737.95,4523.59,4551.79,4351.79,4316.92,3989.74,1666,1695,6.651,0,0,0,0,1,0,
119,4457.44,4042.05,4378.46,4173.85,4091.79,3591.28,4442.56,4466.67,4749.74,4534.36,4555.38,4360,4323.59,3996.92,1665,1694,6.659,0,0,0,0,1,0,
