eeg data - format version 0.2: COUNTER,AF3,F7,F3, FC5, T7, P7, O1, O2,P8, T8, FC6, F4,F8, AF4,GYROX, GYROY, TIMESTAMP, FUNC_ID, FUNC_VALUE, MARKER, SYNC_SIGNAL, Cognitiv Action, Cognitiv Power,
21,4475.9,4014.36,4353.33,4168.21,4049.74,3577.44,4426.67,4455.38,4718.46,4488.72,4488.72,4331.79,4252.82,3958.46,1663,1684,0.125,0,0,0,0,1,0,
22,4482.56,4015.9,4358.46,4169.74,4049.23,3572.31,4421.54,4455.9,4715.9,4488.72,4492.31,4341.03,4265.13,3970.26,1662,1683,0.133,0,0,0,0,1,0,
23,4491.79,4010.77,4359.49,4168.21,4046.15,3574.36,4422.05,4463.59,4721.03,4498.46,4499.49,4347.18,4271.28,3973.85,1662,1684,0.141,0,0,0,0,1,0,
24,4491.79,4007.69,4361.54,4161.03,4045.64,3575.38,4429.74,4476.92,4734.36,4511.28,4509.23,4348.21,4275.38,3973.33,1662,1683,0.148,0,0,0,0,1,0,
25,4480,4004.62,4357.44,4154.36,4044.62,3580.51,4432.31,4481.03,4739.49,4512.31,4512.82,4344.62,4282.05,3976.41,1664,1682,0.156,0,0,0,0,1,0,
26,4464.62,3993.33,4344.62,4154.36,4042.05,3583.08,4428.72,4474.87,4732.31,4508.72,4504.62,4336.92,4274.87,3963.08,1662,1682,0.164,0,0,0,0,1,0,
27,4452.82,3986.67,4336.41,4153.33,4047.69,3582.56,4429.74,4472.31,4726.67,4504.1,4490.26,4326.67,4260,3942.56,1663,1682,0.172,0,0,0,0,1,0,
28,4448.21,3989.23,4333.33,4150.26,4053.85,3584.62,4427.18,4467.69,4724.62,4494.36,4478.46,4317.44,4252.31,3937.95,1664,1681,0.18,0,0,0,0,1,0,
29,4444.1,3988.21,4325.13,4150.77,4049.23,3579.49,4415.9,4451.79,4713.33,4481.54,4473.85,4310.26,4246.15,3930.26,1663,1682,0.187,0,0,0,0,1,0,
30,4436.41,3985.13,4316.41,4151.28,4042.05,3571.28,4409.74,4440,4704.1,4474.36,4470.77,4306.67,4241.54,3918.46,1665,1679,0.195,0,0,0,0,1,0,
31,4441.03,3992.82,4316.41,4150.26,4044.1,3571.79,4409.23,4440,4704.1,4473.33,4472.31,4305.64,4246.67,3928.21,1663,1680,0.203,0,0,0,0,1,0,
32,4456.41,4004.1,4323.59,4155.9,4049.23,3573.33,4409.23,4442.56,4707.18,4488.72,4484.62,4314.36,4260.51,3948.21,1665,1680,0.211,0,0,0,0,1,0,
33,4463.08,4009.23,4336.41,4167.69,4052.82,3573.33,4411.28,4447.69,4716.92,4514.36,4502.56,4331.28,4275.38,3956.41,1665,1679,0.219,0,0,0,0,1,0,
34,4464.1,4011.79,4347.18,4172.31,4051.79,3574.87,4414.36,4457.95,4729.23,4526.15,4515.38,4346.67,4290.77,3965.64,1665,1680,0.227,0,0,0,0,1,0,
35,4478.46,4016.92,4355.9,4169.23,4049.74,3575.38,4414.36,4469.23,4736.41,4532.31,4523.08,4356.92,4304.62,3983.08,1666,1679,0.234,0,0,0,0,1,0,
36,4492.31,4020,4363.08,4171.28,4051.79,3582.05,4414.87,4475.9,4741.03,4540,4530.77,4365.13,4309.23,3993.85,1666,1678,0.242,0,0,0,0,1,0,
37,4480,4007.69,4357.44,4166.67,4052.31,3584.62,4414.36,4476.92,4740,4535.38,4526.67,4358.97,4300.51,3988.21,1666,1678,0.25,0,0,0,0,1,0,
38,4461.54,3991.28,4342.05,4153.33,4049.74,3583.59,4415.9,4472.31,4733.33,4520,4508.21,4341.03,4286.15,3973.33,1665,1678,0.258,0,0,0,0,1,0,
39,4454.36,3984.1,4330.77,4151.28,4047.18,3588.21,4422.56,4465.13,4731.79,4510.77,4492.31,4325.13,4271.28,3957.95,1665,1678,0.266,0,0,0,0,1,0,
40,4447.18,3977.44,4321.54,4150.77,4043.08,3582.56,4422.05,4459.49,4729.74,4507.69,4488.72,4313.33,4262.05,3943.59,1663,1679,0.273,0,0,0,0,1,0,
41,4442.56,3968.21,4313.85,4140,4042.05,3569.74,4413.33,4460.51,4721.03,4506.15,4488.72,4307.69,4262.05,3936.92,1664,1676,0.281,0,0,0,0,1,0,
42,4444.62,3976.92,4314.87,4142.05,4045.64,3569.23,4410.26,4461.03,4717.44,4506.15,4487.69,4306.67,4264.62,3939.49,1662,1677,0.289,0,0,0,0,1,0,
43,4443.59,3989.74,4320,4153.85,4047.18,3571.79,4407.18,4450.26,4717.95,4504.1,4488.21,4304.1,4261.54,3938.46,1662,1676,0.297,0,0,0,0,1,0,
44,4446.67,3988.72,4320.51,4154.36,4043.59,3567.69,4401.03,4442.56,4716.92,4502.56,4487.18,4303.08,4260,3936.92,1661,1675,0.305,0,0,0,0,1,0,
45,4460,3991.28,4324.1,4152.31,4044.1,3571.28,4403.59,4450.26,4716.92,4504.1,4487.18,4307.69,4268.72,3944.1,1662,1676,0.313,0,0,0,0,1,0,
46,4462.56,4000.51,4332.31,4155.9,4043.59,3573.85,4408.72,4458.46,4716.92,4511.79,4495.9,4318.46,4277.44,3952.82,1661,1675,0.32,0,0,0,0,1,0,
47,4458.46,4003.59,4341.03,4156.41,4041.54,3572.31,4416.41,4461.03,4724.1,4522.05,4508.21,4331.28,4283.59,3961.03,1660,1675,0.328,0,0,0,0,1,0,
48,4467.69,4003.59,4345.13,4157.44,4046.67,3578.97,4427.18,4462.56,4730.26,4526.67,4514.87,4336.92,4291.79,3975.38,1660,1674,0.336,0,0,0,0,1,0,
49,4473.85,4004.62,4344.62,4158.46,4050.26,3580.51,4425.64,4463.08,4725.13,4523.59,4513.85,4336.92,4291.79,3978.46,1660,1676,0.344,0,0,0,0,1,0,
50,4462.05,3994.87,4344.1,4152.82,4044.1,3572.31,4412.82,4459.49,4715.9,4511.28,4508.21,4335.9,4280,3962.05,1660,1676,0.352,0,0,0,0,1,0,
51,4453.85,3984.1,4336.92,4149.23,4035.9,3570.26,4408.21,4457.44,4713.85,4502.05,4503.08,4332.31,4274.87,3951.79,1659,1679,0.359,0,0,0,0,1,0,
52,4461.54,3985.64,4328.72,4150.26,4034.87,3574.87,4413.33,4458.46,4718.46,4508.72,4498.97,4326.15,4280.51,3962.05,1659,1678,0.367,0,0,0,0,1,0,
53,4463.08,3987.69,4324.62,4150.26,4034.36,3572.82,4409.74,4454.36,4715.9,4510.26,4496.92,4320,4276.92,3963.08,1656,1679,0.375,0,0,0,0,1,0,
54,4450.77,3987.69,4318.46,4150.26,4033.33,3569.74,4398.46,4442.56,4701.54,4493.85,4487.69,4308.72,4262.05,3944.62,1657,1680,0.383,0,0,0,0,1,0,
55,4448.21,3988.21,4314.87,4150.26,4036.92,3572.31,4400.51,4437.44,4693.33,4486.67,4473.85,4301.54,4257.44,3936.41,1653,1680,0.391,0,0,0,0,1,0,
56,4456.92,3988.21,4323.59,4150.26,4042.05,3574.87,4409.23,4441.03,4701.54,4493.33,4478.46,4308.21,4264.62,3947.18,1653,1683,0.399,0,0,0,0,1,0,
57,4464.62,3996.41,4331.28,4158.97,4047.69,3572.82,4407.69,4442.05,4706.15,4493.85,4487.69,4312.31,4266.15,3954.87,1651,1684,0.406,0,0,0,0,1,0,
58,4462.56,4009.23,4333.33,4165.13,4051.79,3569.23,4401.03,4441.03,4702.56,4488.72,4481.54,4310.77,4258.46,3953.85,1648,1686,0.414,0,0,0,0,1,0,
59,4462.56,4010.26,4340,4161.54,4046.15,3571.28,4403.08,4443.08,4706.67,4488.72,4480.51,4316.92,4260.51,3956.41,1647,1687,0.422,0,0,0,0,1,0,
60,4467.18,4006.67,4342.56,4158.97,4035.38,3572.82,4407.18,4443.08,4710.26,4490.26,4492.31,4321.54,4264.1,3960,1645,1690,0.43,0,0,0,0,1,0,
61,4464.1,4001.54,4337.95,4158.97,4033.85,3560,4403.08,4443.08,4705.13,4488.72,4488.21,4316.41,4255.9,3955.9,1644,1692,0.439,0,0,0,0,1,0,
62,4462.05,3992.82,4337.95,4155.38,4037.95,3555.38,4401.54,4444.1,4706.15,4489.23,4480,4317.44,4251.28,3953.33,1642,1696,0.445,0,0,0,0,1,0,
63,4469.74,3990.26,4342.05,4158.46,4036.41,3567.69,4405.64,4444.62,4711.79,4491.79,4488.21,4327.18,4258.97,3955.9,1638,1701,0.453,0,0,0,0,1,0,
64,4476.41,3993.85,4344.1,4168.21,4035.9,3566.67,4406.67,4443.08,4706.67,4490.26,4492.31,4327.69,4261.54,3958.97,1637,1703,0.461,0,0,0,0,1,0,
65,4474.36,3990.26,4343.59,4165.64,4041.54,3560,4405.64,4440.51,4701.03,4485.64,4488.21,4324.1,4260,3961.54,1637,1704,0.469,0,0,0,0,1,0,
66,4475.9,3986.15,4343.59,4156.41,4046.15,3567.69,4409.74,4443.59,4709.74,4493.85,4496.92,4329.23,4267.69,3967.18,1636,1705,0.477,0,0,0,0,1,0,
67,4477.95,3987.69,4342.56,4154.87,4046.67,3574.36,4415.38,4450.26,4720,4509.74,4507.18,4335.9,4272.82,3968.21,1636,1704,0.485,0,0,0,0,1,0,
68,4466.15,3986.15,4341.03,4155.9,4045.64,3569.23,4414.36,4449.23,4718.97,4510.26,4498.97,4331.28,4267.69,3962.56,1636,1705,0.492,0,0,0,0,1,0,
69,4462.56,3988.21,4341.54,4159.49,4043.59,3567.18,4415.38,4444.62,4715.38,4504.1,4488.72,4325.64,4264.62,3958.97,1635,1702,0.5,0,0,0,0,1,0,
70,4472.31,3996.41,4342.56,4167.18,4043.08,3573.33,4418.46,4447.69,4717.95,4504.62,4491.79,4325.64,4265.64,3960,1635,1704,0.508,0,0,0,0,1,0,
71,4473.33,3999.49,4343.08,4172.82,4046.15,3573.33,4413.33,4445.64,4716.92,4499.49,4493.33,4323.08,4265.13,3958.97,1636,1701,0.516,0,0,0,0,1,0,
72,4461.54,3994.36,4336.92,4166.15,4043.59,3563.59,4402.05,4431.28,4707.18,4487.69,4487.18,4316.92,4261.03,3955.9,1634,1703,0.524,0,0,0,0,1,0,
73,4455.9,3989.74,4326.67,4156.41,4042.56,3554.36,4394.36,4425.13,4703.08,4486.15,4482.05,4314.36,4259.49,3953.85,1637,1701,0.531,0,0,0,0,1,0,
74,4458.97,3990.26,4327.69,4154.36,4051.28,3557.44,4394.87,4432.82,4708.21,4490.77,4479.49,4312.82,4261.54,3955.9,1636,1700,0.539,0,0,0,0,1,0,
75,4457.95,3993.33,4333.85,4155.9,4052.82,3567.69,4395.9,4434.87,4710.26,4490.77,4482.05,4313.33,4266.15,3954.87,1637,1700,0.555,0,0,0,0,1,0,
76,4462.56,3997.44,4335.9,4160,4045.13,3571.28,4396.41,4432.31,4712.31,4491.28,4488.21,4323.08,4274.36,3955.38,1637,1697,0.555,0,0,0,0,1,0,
77,4472.82,4001.54,4340.51,4165.13,4048.21,3563.59,4397.95,4436.41,4718.46,4499.49,4491.79,4332.31,4281.54,3966.67,1638,1695,0.563,0,0,0,0,1,0,
78,4473.33,4000.51,4345.13,4167.69,4052.31,3555.9,4399.49,4441.54,4721.03,4507.18,4491.79,4329.74,4282.56,3977.44,1639,1692,0.571,0,0,0,0,1,0,
79,4470.26,3998.46,4344.1,4167.69,4049.23,3568.21,4404.62,4443.59,4718.97,4509.74,4493.33,4326.67,4281.54,3973.33,1641,1689,0.578,0,0,0,0,1,0,
80,4475.38,3996.92,4343.08,4170.26,4048.72,3575.9,4405.13,4442.56,4718.46,4509.74,4496.41,4330.77,4283.08,3967.69,1642,1685,0.586,0,0,0,0,1,0,
81,4474.36,3991.79,4340.51,4168.21,4042.05,3560,4397.95,4436.41,4717.44,4508.21,4492.31,4328.72,4283.59,3969.74,1643,1682,0.594,0,0,0,0,1,0,
82,4467.18,3986.15,4336.41,4158.97,4034.87,3556.92,4396.41,4436.41,4716.41,4504.1,4494.87,4323.59,4285.13,3972.82,1645,1679,0.602,0,0,0,0,1,0,
83,4470.26,3987.69,4338.46,4153.33,4040,3570.77,4402.56,4443.59,4717.44,4502.56,4504.62,4327.18,4291.28,3976.92,1645,1678,0.61,0,0,0,0,1,0,
84,4475.38,3993.85,4342.05,4158.46,4046.67,3572.31,4405.13,4444.62,4716.92,4505.64,4500,4329.74,4294.87,3977.95,1648,1677,0.618,0,0,0,0,1,0,
85,4471.28,3996.41,4340.51,4166.67,4049.23,3567.69,4407.69,4442.56,4717.44,4507.18,4489.23,4324.62,4293.85,3972.31,1649,1678,0.625,0,0,0,0,1,0,
86,4471.28,3998.97,4341.54,4169.23,4053.85,3573.33,4412.31,4442.56,4717.95,4501.03,4492.31,4322.56,4287.69,3972.82,1650,1679,0.633,0,0,0,0,1,0,
87,4476.41,4005.64,4343.59,4169.74,4053.85,3575.9,4412.82,4437.44,4712.31,4490.77,4494.87,4324.1,4280.51,3975.38,1652,1678,0.641,0,0,0,0,1,0,
88,4476.92,4007.18,4342.56,4172.31,4052.31,3572.82,4409.74,4433.85,4706.67,4488.21,4488.72,4320.51,4278.97,3965.64,1652,1679,0.649,0,0,0,0,1,0,
89,4475.38,4005.13,4342.05,4172.31,4054.87,3574.36,4411.79,4440,4710.77,4497.95,4488.72,4315.38,4281.03,3960,1654,1678,0.657,0,0,0,0,1,0,
90,4473.85,4004.1,4338.97,4169.23,4051.28,3575.38,4411.28,4443.08,4718.46,4504.1,4491.79,4313.33,4280.51,3966.15,1655,1679,0.664,0,0,0,0,1,0,
91,4472.31,4001.03,4333.85,4167.18,4050.77,3573.85,4405.13,4441.03,4719.49,4495.9,4490.26,4312.31,4278.97,3963.59,1656,1678,0.672,0,0,0,0,1,0,
92,4472.31,3997.95,4334.87,4166.67,4057.44,3574.87,4407.69,4441.54,4720,4491.79,4488.21,4310.26,4276.92,3956.41,1656,1680,0.68,0,0,0,0,1,0,
93,4474.36,4000,4341.54,4167.69,4060,3576.92,4414.36,4446.15,4727.69,4501.54,4488.72,4313.85,4277.95,3961.03,1658,1681,0.688,0,0,0,0,1,0,
94,4476.92,3998.46,4345.13,4169.74,4057.95,3576.92,4412.82,4449.23,4734.36,4508.72,4491.79,4322.05,4280.51,3964.1,1657,1680,0.696,0,0,0,0,1,0,
95,4476.41,3989.23,4343.08,4164.1,4051.79,3574.87,4409.23,4447.69,4734.36,4505.64,4491.28,4325.13,4278.46,3956.92,1659,1680,0.704,0,0,0,0,1,0,
96,4467.18,3979.49,4341.54,4155.9,4046.15,3573.33,4410.77,4446.67,4731.79,4506.15,4487.69,4317.95,4273.85,3954.87,1660,1678,0.711,0,0,0,0,1,0,
97,4460,3974.87,4339.49,4155.9,4047.69,3574.36,4411.28,4448.72,4729.23,4506.15,4487.18,4313.85,4273.33,3959.49,1660,1682,0.719,0,0,0,0,1,0,
98,4466.67,3973.85,4338.97,4157.44,4048.21,3575.9,4410.77,4446.15,4723.08,4500,4488.72,4315.38,4274.36,3960,1662,1683,0.727,0,0,0,0,1,0,
99,4468.21,3972.31,4339.49,4155.38,4044.62,3572.31,4411.28,4443.59,4720,4493.33,4490.26,4315.38,4270.26,3957.95,1661,1688,0.735,0,0,0,0,1,0,
100,4460,3971.79,4338.46,4153.85,4048.72,3570.26,4406.67,4443.59,4717.95,4492.82,4487.69,4313.33,4265.13,3955.38,1663,1691,0.743,0,0,0,0,1,0,
101,4458.97,3974.36,4336.41,4153.85,4053.33,3568.21,4398.46,4435.38,4710.26,4492.31,4480.51,4311.79,4264.62,3949.23,1663,1693,0.75,0,0,0,0,1,0,
102,4456.92,3969.23,4335.9,4152.82,4045.64,3561.54,4395.9,4425.64,4703.08,4484.1,4473.85,4311.28,4262.56,3942.56,1664,1694,0.758,0,0,0,0,1,0,
103,4449.23,3959.49,4336.41,4151.28,4037.44,3555.9,4393.85,4426.15,4701.03,4475.38,4472.82,4309.74,4257.44,3940.51,1664,1695,0.766,0,0,0,0,1,0,
104,4452.82,3957.95,4336.41,4149.74,4034.36,3556.41,4388.72,4429.74,4701.03,4475.38,4473.85,4308.21,4256.92,3941.54,1665,1696,0.774,0,0,0,0,1,0,
105,4460.51,3958.46,4333.85,4149.74,4032.82,3557.44,4391.79,4428.21,4701.03,4477.95,4473.33,4308.21,4254.87,3943.59,1664,1696,0.782,0,0,0,0,1,0,
106,4456.41,3961.03,4329.23,4150.26,4036.92,3557.95,4397.95,4426.15,4701.03,4474.36,4473.33,4309.74,4248.72,3943.08,1665,1698,0.79,0,0,0,0,1,0,
107,4454.87,3966.67,4330.77,4152.82,4043.59,3560,4392.31,4425.64,4702.05,4477.44,4475.38,4310.77,4251.79,3943.59,1665,1697,0.797,0,0,0,0,1,0,
108,4456.41,3967.18,4335.38,4155.38,4041.03,3557.95,4385.13,4424.62,4702.05,4483.08,4476.92,4308.21,4261.03,3952.31,1664,1697,0.805,0,0,0,0,1,0,
109,4455.9,3968.21,4335.38,4155.38,4033.85,3556.41,4392.31,4425.13,4702.05,4481.54,4477.95,4310.77,4263.08,3954.87,1665,1695,0.813,0,0,0,0,1,0,
110,4457.44,3971.28,4334.36,4153.85,4033.33,3555.9,4397.44,4423.59,4703.08,4475.9,4476.92,4313.85,4259.49,3945.13,1664,1696,0.821,0,0,0,0,1,0,
111,4461.54,3966.67,4339.49,4154.87,4037.44,3554.87,4390.26,4418.97,4702.05,4474.87,4475.38,4310.26,4261.54,3947.69,1664,1696,0.829,0,0,0,0,1,0,
112,4462.05,3964.62,4342.56,4155.9,4040.51,3557.44,4389.74,4420,4703.59,4484.1,4481.54,4314.87,4266.15,3958.46,1664,1698,0.836,0,0,0,0,1,0,
113,4458.97,3971.79,4338.46,4154.36,4042.56,3561.03,4396.41,4426.15,4710.77,4493.33,4490.26,4320.51,4266.15,3958.46,1664,1699,0.844,0,0,0,0,1,0,
114,4459.49,3971.28,4332.82,4151.79,4043.59,3560.51,4397.44,4428.21,4713.33,4493.85,4490.77,4314.36,4265.64,3954.87,1664,1697,0.852,0,0,0,0,1,0,
115,4461.54,3967.69,4333.33,4151.79,4043.59,3555.38,4395.38,4427.69,4711.28,4491.28,4489.74,4312.31,4274.36,3958.97,1664,1695,0.86,0,0,0,0,1,0,
116,4461.54,3971.79,4339.49,4153.33,4037.44,3558.97,4397.95,4429.74,4715.38,4492.82,4491.79,4322.05,4281.54,3959.49,1664,1692,0.868,0,0,0,0,1,0,
117,4462.56,3973.85,4343.59,4154.87,4033.33,3571.79,4400.51,4430.77,4719.49,4495.38,4492.31,4324.1,4276.92,3956.92,1663,1691,0.876,0,0,0,0,1,0,
118,4464.62,3972.31,4343.59,4155.9,4042.05,3573.33,4398.97,4430.26,4716.92,4495.9,4490.77,4320,4277.44,3954.87,1664,1691,0.883,0,0,0,0,1,0,
119,4463.08,3972.31,4341.54,4155.38,4046.67,3560,4397.44,4426.15,4710.26,4492.82,4488.21,4316.92,4278.46,3956.92,1664,1684,0.891,0,0,0,0,1,0,
120,4461.54,3972.82,4342.05,4155.38,4042.56,3559.49,4395.9,4419.49,4705.64,4490.26,4486.67,4313.85,4269.74,3958.46,1666,1678,0.899,0,0,0,0,1,0,
121,4461.54,3972.82,4342.56,4156.41,4046.15,3571.28,4396.92,4417.95,4705.13,4490.26,4485.13,4315.38,4266.15,3948.72,1666,1677,0.907,0,0,0,0,1,0,
122,4458.46,3971.28,4337.95,4155.38,4049.23,3572.31,4401.54,4418.46,4704.62,4484.1,4477.44,4314.87,4267.69,3941.03,1668,1679,0.915,0,0,0,0,1,0,
123,4458.46,3972.31,4336.41,4156.92,4044.62,3568.21,4410.26,4421.03,4704.62,4480,4475.9,4310.77,4268.21,3951.79,1667,1683,0.922,0,0,0,0,1,0,
124,4461.03,3972.82,4341.03,4158.97,4044.1,3569.74,4411.28,4426.67,4707.69,4487.18,4485.13,4310.77,4268.21,3960,1666,1686,0.93,0,0,0,0,1,0,
125,4457.95,3971.28,4341.03,4153.85,4045.64,3569.74,4401.03,4427.18,4709.23,4491.79,4488.72,4314.87,4268.21,3950.26,1667,1689,0.938,0,0,0,0,1,0,
126,4456.41,3971.79,4340,4152.31,4043.08,3572.31,4397.95,4424.62,4709.74,4489.74,4486.15,4317.44,4272.31,3948.72,1665,1689,0.946,0,0,0,0,1,0,
127,4461.03,3975.9,4343.08,4159.49,4044.1,3572.82,4402.05,4427.18,4710.77,4492.31,4490.77,4318.97,4282.05,3960.51,1665,1691,0.954,0,0,0,0,1,0,
128,4461.54,3975.9,4344.1,4160.51,4044.62,3563.59,4400,4426.15,4707.69,4489.23,4490.26,4320.51,4276.92,3953.33,1666,1687,0.962,0,0,0,0,1,0,
0,4457.44,3973.85,4342.56,4155.9,4045.13,3563.08,4395.38,4421.03,4702.56,4477.95,4480.51,4319.49,4262.56,3942.05,1663,1688,0.969,0,0,0,0,1,0,
1,4456.41,3974.36,4341.54,4157.44,4050.26,3571.79,4401.54,4422.56,4704.1,4478.97,4474.36,4313.33,4263.08,3951.79,1663,1688,0.977,0,0,0,0,1,0,
2,4457.44,3974.36,4338.97,4158.97,4051.79,3572.31,4410.26,4427.69,4711.28,4489.23,4475.38,4310.26,4266.67,3961.03,1663,1689,0.985,0,0,0,0,1,0,
3,4457.44,3973.85,4339.49,4156.92,4053.33,3572.31,4411.79,4429.23,4716.92,4491.28,4481.54,4314.87,4265.64,3955.38,1662,1689,0.993,0,0,0,0,1,0,
4,4457.44,3974.36,4341.54,4155.9,4055.9,3576.41,4411.28,4430.77,4720,4489.23,4484.62,4319.49,4269.74,3952.31,1660,1688,1.001,0,0,0,0,1,0,
5,4458.46,3972.82,4338.97,4156.41,4050.26,3575.38,4413.33,4431.28,4718.97,4491.79,4478.97,4317.44,4273.85,3955.9,1660,1689,1.009,0,0,0,0,1,0,
6,4457.95,3970.26,4335.9,4154.36,4041.03,3569.23,4411.79,4427.69,4712.31,4487.69,4475.9,4312.82,4270.77,3954.36,1658,1690,1.016,0,0,0,0,1,0,
7,4456.41,3971.28,4338.46,4152.31,4043.08,3571.79,4411.28,4431.79,4715.38,4484.1,4482.56,4312.82,4271.79,3957.95,1657,1693,1.024,0,0,0,0,1,0,
8,4464.1,3976.41,4347.18,4160,4055.38,3580.51,4418.97,4445.13,4732.82,4498.46,4494.87,4324.62,4284.62,3968.21,1655,1695,1.032,0,0,0,0,1,0,
9,4471.79,3978.46,4351.28,4167.18,4063.59,3582.05,4421.03,4449.23,4740,4512.82,4506.67,4335.9,4297.44,3976.41,1654,1699,1.04,0,0,0,0,1,0,
10,4464.62,3973.33,4343.59,4160,4058.97,3573.33,4412.31,4444.62,4731.28,4511.79,4509.23,4331.28,4297.44,3972.82,1654,1699,1.048,0,0,0,0,1,0,
11,4454.87,3969.74,4338.46,4150.77,4046.15,3568.72,4409.23,4443.59,4728.21,4507.69,4501.54,4323.59,4285.13,3962.05,1651,1700,1.055,0,0,0,0,1,0,
12,4456.92,3971.28,4343.08,4151.79,4048.21,3571.79,4412.82,4444.1,4731.28,4507.69,4502.56,4327.18,4280.51,3957.44,1651,1698,1.064,0,0,0,0,1,0,
13,4461.54,3973.33,4343.59,4158.46,4058.97,3573.33,4412.82,4442.56,4726.67,4507.69,4506.67,4330.77,4290.26,3961.03,1650,1697,1.071,0,0,0,0,1,0,
14,4461.03,3973.33,4342.05,4165.64,4055.38,3573.33,4411.79,4442.05,4721.03,4506.15,4497.95,4328.21,4294.87,3965.13,1649,1698,1.079,0,0,0,0,1,0,
15,4459.49,3975.9,4348.21,4170.26,4047.18,3573.33,4412.82,4442.05,4722.56,4506.15,4495.38,4329.23,4290.26,3968.21,1648,1698,1.087,0,0,0,0,1,0,
16,4463.59,3984.62,4354.36,4170.26,4055.9,3572.31,4412.31,4444.62,4730.77,4507.69,4504.62,4337.44,4291.28,3971.28,1647,1699,1.095,0,0,0,0,1,0,
17,4472.31,3989.74,4358.97,4170.26,4065.64,3573.85,4412.82,4446.15,4733.85,4506.15,4506.67,4346.67,4297.44,3973.85,1646,1700,1.102,0,0,0,0,1,0,
18,4477.44,3989.23,4366.15,4171.28,4062.56,3574.87,4414.36,4443.59,4731.79,4510.26,4511.28,4351.79,4303.59,3981.54,1646,1699,1.11,0,0,0,0,1,0,
19,4478.46,3990.26,4366.67,4174.36,4061.54,3573.33,4414.36,4444.1,4733.85,4521.54,4523.59,4352.31,4311.79,3994.36,1646,1697,1.118,0,0,0,0,1,0,
20,4473.33,3986.15,4358.97,4167.69,4055.9,3570.26,4409.74,4442.56,4730.77,4518.46,4516.41,4348.21,4307.18,3991.79,1645,1697,1.126,0,0,0,0,1,0,
21,4462.56,3974.36,4352.82,4155.38,4044.62,3569.23,4406.15,4434.87,4721.03,4505.13,4500,4341.03,4292.31,3975.9,1647,1695,1.134,0,0,0,0,1,0,
22,4458.97,3969.74,4352.31,4160.51,4046.15,3570.77,4410.77,4434.87,4716.41,4504.1,4504.1,4339.49,4291.28,3968.72,1646,1694,1.141,0,0,0,0,1,0,
23,4462.56,3973.85,4351.28,4165.64,4049.23,3572.31,4415.38,4443.59,4717.44,4506.67,4507.69,4337.95,4298.97,3968.72,1648,1695,1.149,0,0,0,0,1,0,
24,4461.54,3975.9,4348.21,4160,4038.46,3571.28,4413.33,4445.64,4723.59,4503.59,4498.97,4332.82,4294.87,3966.67,1648,1694,1.157,0,0,0,0,1,0,
25,4462.05,3978.46,4352.31,4162.05,4039.49,3569.23,4410.26,4441.54,4729.23,4504.62,4500,4336.41,4290.77,3967.18,1649,1695,1.165,0,0,0,0,1,0,
26,4466.15,3983.08,4359.49,4169.23,4051.79,3570.26,4411.79,4441.54,4727.69,4507.18,4509.23,4343.59,4300.51,3974.87,1650,1691,1.173,0,0,0,0,1,0,
27,4461.54,3985.64,4356.41,4167.18,4050.26,3574.36,4413.33,4444.1,4728.21,4508.72,4510.77,4339.49,4308.21,3976.92,1650,1690,1.182,0,0,0,0,1,0,
28,4463.08,3989.23,4348.72,4166.67,4049.74,3574.36,4412.82,4444.62,4733.33,4506.67,4508.21,4332.82,4303.59,3971.28,1651,1687,1.188,0,0,0,0,1,0,
29,4472.31,3994.36,4348.21,4172.31,4064.1,3572.82,4412.31,4441.03,4733.33,4505.64,4507.18,4332.82,4301.54,3969.74,1651,1686,1.196,0,0,0,0,1,0,
30,4474.36,4001.03,4351.28,4175.9,4075.9,3583.08,4414.36,4442.56,4732.82,4518.46,4506.67,4335.38,4309.23,3971.28,1652,1686,1.204,0,0,0,0,1,0,
31,4472.31,4001.54,4348.72,4175.9,4072.31,3590.26,4416.92,4445.64,4736.41,4526.15,4508.21,4335.38,4312.31,3970.26,1652,1686,1.212,0,0,0,0,1,0,
32,4470.26,3992.82,4342.56,4169.23,4058.97,3578.97,4412.82,4436.92,4729.23,4511.79,4503.59,4329.74,4304.1,3967.69,1654,1685,1.22,0,0,0,0,1,0,
33,4461.54,3987.69,4337.95,4165.13,4048.72,3569.23,4407.69,4426.15,4717.44,4499.49,4492.82,4323.08,4293.33,3967.69,1652,1684,1.227,0,0,0,0,1,0,
34,4457.95,3991.28,4338.97,4166.67,4053.33,3572.82,4404.62,4428.21,4717.44,4503.08,4494.87,4326.15,4293.33,3967.18,1654,1684,1.235,0,0,0,0,1,0,
35,4467.18,3992.31,4344.1,4165.64,4061.03,3574.87,4403.59,4431.79,4722.05,4504.62,4505.13,4334.36,4300.51,3967.69,1653,1685,1.243,0,0,0,0,1,0,
36,4466.15,3990.26,4349.23,4165.13,4054.36,3570.77,4407.18,4429.23,4724.1,4503.08,4507.69,4337.44,4300.51,3970.77,1654,1686,1.251,0,0,0,0,1,0,
37,4464.62,3990.26,4351.79,4167.69,4049.74,3571.28,4412.31,4431.28,4722.56,4506.67,4504.62,4336.92,4296.41,3972.82,1655,1685,1.259,0,0,0,0,1,0,
38,4469.23,3991.28,4352.31,4169.23,4061.03,3573.33,4413.33,4434.36,4720,4503.08,4505.13,4334.87,4297.44,3976.41,1654,1685,1.267,0,0,0,0,1,0,
39,4462.05,3990.77,4351.28,4170.26,4064.62,3571.79,4405.64,4428.72,4716.41,4494.87,4502.56,4334.36,4297.44,3972.31,1656,1684,1.274,0,0,0,0,1,0,
40,4461.03,3989.23,4350.26,4169.74,4051.79,3570.26,4401.03,4424.1,4715.38,4497.44,4500,4333.85,4295.38,3960.51,1655,1684,1.282,0,0,0,0,1,0,
41,4472.82,3988.21,4353.33,4167.18,4052.31,3572.82,4406.67,4425.13,4716.41,4507.18,4504.62,4334.87,4296.92,3962.05,1656,1684,1.29,0,0,0,0,1,0,
42,4473.85,3990.26,4357.95,4166.15,4060.51,3575.38,4411.79,4431.28,4717.95,4509.23,4508.21,4337.44,4299.49,3973.85,1657,1685,1.298,0,0,0,0,1,0,
43,4470.77,3990.26,4355.9,4168.72,4053.85,3570.77,4410.77,4436.41,4722.05,4503.59,4505.64,4341.03,4301.03,3974.36,1658,1685,1.306,0,0,0,0,1,0,
44,4477.95,3990.77,4357.44,4170.77,4051.28,3573.85,4414.36,4440.51,4728.72,4506.67,4510.77,4348.21,4305.64,3973.85,1659,1687,1.313,0,0,0,0,1,0,
45,4480.51,4000.51,4367.69,4172.31,4067.69,3587.69,4422.56,4452.31,4736.41,4522.05,4520.51,4353.33,4312.31,3981.54,1660,1687,1.321,0,0,0,0,1,0,
46,4476.92,4003.08,4364.1,4172.31,4074.36,3585.13,4418.97,4459.49,4738.97,4527.69,4514.36,4349.23,4312.82,3980,1660,1689,1.329,0,0,0,0,1,0,
47,4477.44,3995.9,4350.26,4170.77,4062.05,3571.28,4411.28,4449.23,4731.28,4515.9,4501.54,4342.05,4305.13,3968.72,1661,1690,1.337,0,0,0,0,1,0,
48,4475.9,3994.36,4348.72,4169.23,4058.97,3571.28,4411.28,4435.38,4720,4506.15,4503.59,4336.92,4296.41,3965.13,1661,1692,1.345,0,0,0,0,1,0,
49,4472.31,3995.9,4349.74,4169.23,4063.59,3577.44,4411.79,4430.77,4717.44,4503.59,4503.08,4332.82,4295.9,3968.72,1662,1692,1.353,0,0,0,0,1,0,
50,4470.26,3989.74,4340,4168.21,4059.49,3572.82,4408.72,4427.69,4717.44,4499.49,4493.85,4327.69,4295.38,3965.64,1663,1694,1.36,0,0,0,0,1,0,
51,4469.23,3986.67,4338.46,4166.15,4061.03,3568.72,4409.74,4430.77,4717.95,4501.03,4498.46,4324.1,4291.79,3958.97,1664,1694,1.368,0,0,0,0,1,0,
52,4471.28,3990.26,4348.72,4169.74,4068.72,3572.82,4416.92,4442.56,4727.69,4508.21,4507.18,4328.21,4299.49,3966.67,1663,1695,1.376,0,0,0,0,1,0,
53,4473.33,3990.77,4355.38,4173.33,4064.62,3574.36,4420.51,4447.69,4737.95,4510.26,4506.67,4336.92,4311.79,3983.59,1665,1696,1.384,0,0,0,0,1,0,
54,4474.36,3989.23,4353.85,4169.23,4055.38,3572.82,4418.97,4446.67,4737.95,4508.21,4513.33,4339.49,4311.28,3990.26,1664,1696,1.392,0,0,0,0,1,0,
55,4476.92,3987.69,4354.87,4166.15,4060.51,3572.31,4422.05,4447.69,4733.85,4508.72,4523.08,4339.49,4309.23,3986.15,1665,1697,1.399,0,0,0,0,1,0,
56,4476.41,3985.13,4357.44,4169.23,4063.08,3574.36,4422.56,4444.1,4727.69,4507.69,4515.9,4343.59,4310.77,3980.51,1665,1695,1.407,0,0,0,0,1,0,
57,4467.69,3980.51,4355.9,4167.69,4057.44,3572.82,4415.9,4438.46,4720,4506.15,4505.13,4343.08,4307.18,3976.41,1664,1696,1.415,0,0,0,0,1,0,
58,4464.1,3981.54,4356.92,4164.62,4060,3569.23,4411.28,4438.46,4720,4506.15,4507.69,4339.49,4306.15,3975.38,1665,1697,1.423,0,0,0,0,1,0,
59,4471.28,3986.67,4357.44,4165.64,4059.49,3567.69,4411.79,4436.41,4720,4504.62,4509.23,4340,4304.1,3974.36,1664,1697,1.431,0,0,0,0,1,0,
60,4474.87,3986.15,4355.9,4166.15,4053.85,3567.69,4410.26,4433.85,4714.87,4503.08,4505.64,4341.03,4298.46,3975.38,1664,1698,1.439,0,0,0,0,1,0,
61,4471.79,3987.18,4357.44,4167.18,4058.46,3571.28,4410.77,4439.49,4721.03,4506.15,4510.26,4343.59,4304.1,3982.56,1663,1698,1.446,0,0,0,0,1,0,
62,4475.38,3992.31,4360.51,4169.74,4058.46,3573.33,4415.9,4446.67,4734.87,4510.26,4518.97,4348.72,4314.36,3990.26,1664,1697,1.454,0,0,0,0,1,0,
63,4478.97,3991.28,4361.54,4169.23,4051.79,3569.74,4415.38,4447.18,4737.44,4510.77,4521.54,4350.77,4311.28,3989.74,1662,1697,1.462,0,0,0,0,1,0,
64,4477.44,3987.18,4365.64,4168.21,4053.33,3567.69,4414.87,4445.13,4729.74,4506.15,4518.97,4351.28,4307.18,3986.67,1662,1696,1.47,0,0,0,0,1,0,
65,4477.44,3994.36,4365.64,4169.74,4055.9,3571.79,4422.56,4446.67,4729.74,4505.13,4518.46,4352.31,4311.79,3990.77,1662,1694,1.478,0,0,0,0,1,0,
66,4478.46,3998.46,4357.95,4169.74,4052.82,3573.85,4429.23,4448.21,4735.38,4516.92,4520.51,4348.21,4311.79,3990.77,1661,1695,1.486,0,0,0,0,1,0,
67,4476.92,3991.28,4354.36,4169.74,4056.41,3572.31,4425.13,4448.21,4735.38,4521.54,4520,4341.54,4312.82,3980,1661,1693,1.493,0,0,0,0,1,0,
68,4473.85,3991.28,4355.9,4169.23,4063.59,3571.79,4418.97,4446.15,4734.36,4514.87,4522.05,4340,4319.49,3977.44,1660,1693,1.501,0,0,0,0,1,0,
69,4473.85,3996.92,4356.41,4166.67,4062.56,3573.33,4418.46,4445.64,4734.36,4517.95,4523.08,4343.59,4320,3990.77,1661,1690,1.509,0,0,0,0,1,0,
70,4476.92,3993.85,4352.82,4166.67,4056.92,3570.77,4414.36,4443.59,4728.72,4518.97,4514.87,4342.05,4314.36,3990.77,1661,1689,1.517,0,0,0,0,1,0,
71,4470.77,3986.67,4345.13,4165.13,4049.74,3561.54,4406.67,4435.38,4718.46,4507.69,4505.13,4334.87,4308.72,3973.33,1661,1688,1.525,0,0,0,0,1,0,
72,4461.03,3987.69,4339.49,4158.97,4048.21,3561.03,4407.69,4430.26,4715.9,4501.54,4506.15,4331.28,4306.15,3967.69,1661,1687,1.532,0,0,0,0,1,0,
73,4465.13,3990.26,4337.95,4157.95,4053.33,3571.28,4411.79,4436.41,4717.44,4506.15,4507.18,4332.82,4307.18,3975.38,1662,1688,1.54,0,0,0,0,1,0,
74,4475.9,3995.9,4341.54,4165.13,4058.97,3573.85,4412.82,4442.56,4721.03,4508.21,4505.64,4337.44,4310.77,3981.54,1661,1689,1.548,0,0,0,0,1,0,
75,4478.97,4004.1,4350.77,4170.26,4060.51,3572.82,4414.36,4443.59,4726.67,4507.69,4514.87,4342.05,4312.82,3987.69,1662,1688,1.556,0,0,0,0,1,0,
76,4475.38,4000,4356.92,4168.72,4052.82,3572.82,4414.36,4443.08,4725.13,4506.67,4524.1,4344.1,4311.28,3989.23,1662,1686,1.564,0,0,0,0,1,0,
77,4471.79,3989.74,4355.9,4167.18,4048.21,3566.67,4409.74,4443.59,4720,4507.18,4520,4345.64,4311.79,3986.67,1661,1688,1.572,0,0,0,0,1,0,
78,4472.82,3989.74,4357.95,4166.15,4053.85,3564.62,4410.77,4445.13,4723.08,4511.79,4520.51,4351.28,4315.38,3988.21,1663,1685,1.579,0,0,0,0,1,0,
79,4476.41,3994.87,4362.05,4169.74,4054.36,3570.26,4415.38,4447.18,4727.18,4510.26,4525.64,4353.85,4315.38,3987.18,1661,1686,1.587,0,0,0,0,1,0,
80,4473.85,3985.64,4357.44,4165.64,4045.13,3563.59,4413.33,4445.64,4721.54,4506.15,4515.9,4349.74,4307.18,3979.49,1663,1686,1.595,0,0,0,0,1,0,
81,4470.26,3975.38,4353.33,4153.85,4040.51,3553.33,4409.23,4442.05,4718.97,4505.13,4509.23,4348.21,4303.08,3971.28,1661,1686,1.603,0,0,0,0,1,0,
82,4474.36,3980,4356.92,4158.97,4045.13,3560.51,4413.33,4444.62,4728.21,4506.67,4518.97,4354.36,4309.74,3973.33,1662,1686,1.611,0,0,0,0,1,0,
83,4475.9,3984.1,4360,4166.15,4051.28,3573.85,4418.46,4450.26,4733.85,4508.72,4517.44,4357.95,4311.28,3986.15,1662,1686,1.618,0,0,0,0,1,0,
84,4471.79,3977.95,4357.44,4155.9,4053.33,3574.36,4416.41,4448.72,4726.15,4507.69,4506.15,4352.82,4303.59,3986.15,1663,1687,1.626,0,0,0,0,1,0,
85,4472.82,3972.31,4355.38,4150.77,4048.72,3569.23,4412.82,4444.62,4718.46,4502.05,4507.69,4347.69,4298.97,3975.38,1662,1685,1.634,0,0,0,0,1,0,
86,4472.82,3975.9,4355.38,4156.92,4046.15,3570.26,4412.31,4445.13,4721.54,4499.49,4512.82,4350.26,4302.56,3980,1663,1686,1.642,0,0,0,0,1,0,
87,4463.08,3980,4355.38,4157.44,4050.26,3572.31,4407.18,4445.64,4722.05,4502.56,4507.18,4352.82,4304.62,3986.67,1663,1685,1.65,0,0,0,0,1,0,
88,4462.05,3983.59,4353.85,4158.97,4051.28,3569.23,4398.97,4442.05,4722.56,4503.59,4508.72,4348.21,4307.18,3981.03,1663,1685,1.658,0,0,0,0,1,0,
89,4475.9,3990.26,4357.44,4168.21,4054.87,3568.72,4401.54,4443.08,4731.79,4511.28,4521.54,4349.23,4315.9,3985.13,1664,1684,1.665,0,0,0,0,1,0,
90,4482.56,3997.44,4363.59,4170.26,4064.1,3574.36,4411.79,4448.72,4737.44,4523.08,4526.67,4357.44,4321.03,3993.33,1662,1686,1.673,0,0,0,0,1,0,
91,4476.92,4001.54,4363.08,4168.72,4065.64,3577.44,4412.82,4450.26,4735.38,4518.97,4522.05,4358.46,4316.92,3989.74,1663,1686,1.681,0,0,0,0,1,0,
92,4474.87,3995.38,4356.41,4168.21,4058.46,3573.85,4404.1,4446.67,4732.82,4505.13,4519.49,4349.23,4311.28,3984.1,1663,1686,1.689,0,0,0,0,1,0,
93,4476.92,3991.28,4354.87,4168.21,4057.95,3569.74,4396.92,4441.54,4730.26,4500.51,4521.54,4345.13,4309.23,3982.05,1662,1688,1.697,0,0,0,0,1,0,
94,4476.41,3997.44,4362.05,4170.77,4060.51,3570.26,4402.05,4443.08,4730.26,4509.74,4521.03,4352.82,4314.36,3985.64,1661,1688,1.704,0,0,0,0,1,0,
95,4475.9,4000,4367.69,4170.77,4063.08,3573.85,4411.79,4453.85,4740.51,4520,4523.59,4358.46,4322.56,3992.31,1660,1689,1.712,0,0,0,0,1,0,
96,4475.38,3993.85,4364.1,4168.72,4069.74,3578.46,4412.82,4461.03,4748.21,4521.03,4528.21,4357.44,4323.59,3992.82,1660,1688,1.72,0,0,0,0,1,0,
97,4479.49,3994.36,4361.03,4169.74,4075.9,3584.62,4412.82,4460.51,4749.23,4517.95,4528.21,4356.41,4324.1,3991.79,1660,1689,1.728,0,0,0,0,1,0,
98,4480,3999.49,4365.64,4170.77,4075.9,3588.72,4415.9,4460,4751.28,4520,4525.64,4358.46,4325.13,3994.87,1659,1689,1.736,0,0,0,0,1,0,
99,4474.36,3994.87,4365.64,4169.74,4069.23,3589.23,4415.38,4458.46,4748.21,4520.51,4524.1,4357.44,4320.51,3990.77,1658,1690,1.744,0,0,0,0,1,0,
100,4481.54,3993.33,4363.08,4172.31,4068.72,3590.26,4414.36,4457.95,4745.64,4520.51,4524.1,4356.92,4317.95,3985.64,1659,1690,1.751,0,0,0,0,1,0,
101,4494.36,3998.97,4365.13,4175.38,4075.38,3589.74,4414.87,4460.51,4746.67,4522.56,4525.13,4356.92,4320.51,3988.21,1659,1689,1.759,0,0,0,0,1,0,
102,4486.67,3994.87,4365.13,4169.23,4069.23,3586.15,4411.79,4452.82,4740.51,4513.85,4525.13,4353.85,4316.92,3984.1,1659,1689,1.767,0,0,0,0,1,0,
103,4473.85,3989.74,4364.62,4163.59,4062.05,3586.15,4411.28,4444.62,4732.31,4506.15,4522.05,4354.87,4313.85,3978.46,1659,1691,1.775,0,0,0,0,1,0,
104,4477.95,3996.92,4367.18,4168.21,4071.28,3588.21,4414.36,4453.85,4735.38,4510.26,4521.54,4356.92,4317.95,3985.13,1659,1692,1.784,0,0,0,0,1,0,
105,4480.51,4000,4366.15,4170.77,4078.46,3586.15,4413.85,4458.46,4738.46,4509.74,4523.59,4353.85,4321.54,3993.85,1659,1694,1.79,0,0,0,0,1,0,
106,4472.31,3994.36,4363.08,4167.69,4072.82,3584.62,4410.77,4445.64,4731.28,4502.05,4522.56,4353.33,4317.95,3985.64,1659,1694,1.798,0,0,0,0,1,0,
107,4479.49,3997.44,4364.1,4168.21,4072.31,3587.69,4411.79,4441.03,4728.21,4503.08,4521.03,4355.38,4312.82,3977.95,1659,1695,1.806,0,0,0,0,1,0,
108,4489.74,4006.67,4368.72,4171.28,4077.44,3589.74,4415.38,4448.72,4732.82,4508.21,4521.54,4355.38,4316.41,3987.69,1659,1694,1.814,0,0,0,0,1,0,
109,4480,4002.05,4370.77,4171.28,4079.49,3589.74,4415.9,4448.21,4735.9,4506.15,4524.62,4357.44,4324.62,3992.31,1658,1695,1.822,0,0,0,0,1,0,
110,4468.72,3989.23,4368.21,4166.15,4070.77,3582.05,4411.28,4444.1,4733.85,4506.15,4523.59,4355.9,4321.03,3983.59,1658,1696,1.83,0,0,0,0,1,0,
111,4481.03,3989.23,4364.62,4164.62,4063.08,3577.95,4408.72,4451.28,4738.46,4515.9,4519.49,4349.74,4317.95,3983.59,1657,1695,1.837,0,0,0,0,1,0,
112,4498.46,4000,4365.13,4168.72,4072.82,3584.62,4412.31,4458.97,4748.72,4525.13,4526.67,4357.44,4327.69,3994.36,1656,1696,1.845,0,0,0,0,1,0,
113,4490.77,3999.49,4366.67,4169.74,4078.46,3589.23,4413.85,4458.46,4750.26,4526.15,4538.97,4367.18,4329.74,3992.31,1656,1695,1.853,0,0,0,0,1,0,
114,4474.36,3990.26,4367.69,4162.05,4070.26,3587.69,4413.85,4458.97,4746.15,4525.64,4535.38,4362.56,4325.64,3986.15,1656,1695,1.861,0,0,0,0,1,0,
115,4472.82,3988.21,4365.13,4158.46,4067.69,3588.72,4416.41,4461.54,4743.59,4524.62,4523.08,4356.41,4328.21,3991.28,1655,1695,1.869,0,0,0,0,1,0,
116,4475.9,3993.85,4357.44,4164.62,4068.21,3589.23,4421.54,4458.46,4737.95,4516.41,4521.03,4353.85,4327.18,3985.13,1655,1695,1.877,0,0,0,0,1,0,
117,4472.82,3997.95,4356.41,4168.72,4067.69,3588.72,4423.59,4455.9,4731.28,4505.13,4523.59,4352.31,4321.54,3974.87,1655,1695,1.884,0,0,0,0,1,0,
118,4474.87,4005.13,4363.59,4169.74,4079.49,3591.28,4418.46,4455.9,4731.28,4502.56,4521.54,4356.92,4322.56,3984.1,1654,1697,1.892,0,0,0,0,1,0,
119,4478.46,4010.77,4366.15,4172.31,4088.72,3590.26,4412.31,4447.69,4732.31,4511.28,4521.03,4359.49,4325.64,3993.85,1655,1696,1.9,0,0,0,0,1,0,
120,4475.38,4009.23,4364.1,4170.26,4083.59,3586.67,4407.18,4441.03,4732.82,4520,4523.08,4355.38,4323.59,3988.21,1654,1697,1.908,0,0,0,0,1,0,
121,4471.79,4009.23,4365.13,4167.69,4085.13,3589.23,4405.64,4441.54,4732.82,4520.51,4521.54,4356.92,4325.13,3986.15,1654,1696,1.916,0,0,0,0,1,0,
122,4475.9,4013.85,4368.21,4177.44,4093.33,3589.74,4407.18,4447.18,4733.33,4519.49,4521.03,4363.08,4330.26,3990.77,1653,1694,1.923,0,0,0,0,1,0,
123,4488.21,4015.9,4373.33,4186.15,4093.33,3591.79,4410.77,4456.41,4740.51,4521.03,4530.26,4365.64,4335.38,3992.31,1654,1695,1.931,0,0,0,0,1,0,
124,4490.77,4011.79,4374.87,4178.97,4086.15,3595.9,4417.95,4464.1,4749.23,4527.18,4537.44,4365.13,4335.9,3992.31,1654,1693,1.939,0,0,0,0,1,0,
125,4478.97,4005.13,4364.62,4168.21,4080.51,3594.36,4424.62,4463.59,4750.26,4533.85,4534.87,4360,4329.74,3988.21,1654,1694,1.947,0,0,0,0,1,0,
126,4474.87,4003.08,4358.97,4165.64,4081.03,3595.38,4426.15,4461.03,4749.23,4535.38,4534.36,4358.46,4328.72,3990.26,1654,1694,1.955,0,0,0,0,1,0,
127,4483.08,4005.64,4364.1,4168.21,4081.03,3602.05,4425.64,4466.67,4752.31,4534.36,4538.46,4362.56,4335.38,4003.08,1654,1695,1.964,0,0,0,0,1,0,
128,4483.08,4005.13,4363.08,4169.23,4072.82,3605.13,4428.72,4471.79,4755.38,4537.95,4540,4360.51,4338.46,4004.1,1654,1694,1.97,0,0,0,0,1,0,
0,4473.85,4001.54,4355.9,4168.21,4073.85,3600,4425.64,4465.64,4751.79,4535.9,4534.87,4353.33,4332.82,3988.72,1653,1695,1.978,0,0,0,0,1,0,
1,4472.82,4003.59,4355.9,4167.69,4084.1,3593.85,4417.44,4454.36,4741.03,4525.13,4524.62,4348.72,4326.15,3976.41,1654,1694,1.986,0,0,0,0,1,0,
2,4471.28,4006.67,4357.44,4168.72,4087.69,3589.74,4411.79,4447.69,4731.28,4517.95,4517.95,4344.62,4321.54,3974.36,1652,1694,1.994,0,0,0,0,1,0,
3,4461.54,4005.13,4350.77,4169.74,4085.64,3587.69,4404.62,4436.92,4727.69,4510.26,4518.46,4340.51,4316.92,3974.36,1654,1694,2.002,0,0,0,0,1,0,
4,4463.59,4006.15,4348.21,4171.28,4089.23,3588.72,4403.59,4430.77,4726.15,4502.05,4518.97,4341.54,4315.9,3974.36,1653,1693,2.009,0,0,0,0,1,0,
5,4474.87,4014.87,4354.36,4174.87,4093.85,3590.26,4410.77,4437.95,4729.74,4508.72,4516.92,4343.59,4317.44,3973.33,1652,1693,2.017,0,0,0,0,1,0,
6,4475.9,4018.97,4358.97,4175.9,4095.38,3595.38,4415.38,4448.72,4741.03,4520.51,4518.97,4342.56,4318.46,3975.9,1653,1692,2.026,0,0,0,0,1,0,
7,4471.28,4012.82,4356.41,4172.82,4095.9,3600,4416.41,4456.92,4751.28,4524.1,4524.1,4344.1,4318.97,3976.92,1652,1692,2.033,0,0,0,0,1,0,
8,4472.82,4006.67,4354.87,4170.26,4087.18,3597.95,4421.03,4461.03,4752.31,4526.67,4525.13,4348.72,4321.54,3978.46,1652,1692,2.041,0,0,0,0,1,0,
9,4474.87,4006.15,4359.49,4170.77,4082.05,3592.31,4421.54,4461.54,4751.28,4527.69,4523.59,4351.79,4324.1,3986.15,1652,1693,2.049,0,0,0,0,1,0,
10,4475.38,4007.69,4360,4170.77,4089.74,3590.26,4415.9,4460.51,4750.77,4525.13,4525.64,4352.82,4328.21,3990.26,1652,1693,2.056,0,0,0,0,1,0,
11,4472.82,4006.67,4351.79,4169.23,4089.23,3589.23,4413.33,4452.82,4742.56,4519.49,4526.15,4346.67,4324.62,3982.05,1651,1693,2.064,0,0,0,0,1,0,
12,4466.67,4002.56,4346.67,4166.15,4076.41,3586.15,4411.28,4441.03,4730.77,4509.74,4521.03,4339.49,4314.36,3971.28,1652,1693,2.072,0,0,0,0,1,0,
13,4470.77,4006.15,4357.44,4167.69,4077.95,3587.69,4409.74,4438.46,4731.28,4505.13,4518.97,4345.13,4313.33,3972.31,1651,1695,2.08,0,0,0,0,1,0,
14,4477.95,4013.85,4367.18,4176.92,4092.82,3588.21,4411.28,4443.59,4735.9,4508.21,4521.54,4353.85,4320.51,3982.05,1651,1695,2.088,0,0,0,0,1,0,
15,4473.33,4011.28,4360.51,4178.46,4087.18,3586.15,4409.74,4443.08,4734.36,4510.77,4519.49,4346.67,4318.46,3988.21,1651,1694,2.095,0,0,0,0,1,0,
16,4468.72,4007.18,4353.85,4170.77,4070.77,3587.69,4409.23,4440,4735.38,4508.72,4518.46,4337.44,4311.79,3982.56,1651,1694,2.103,0,0,0,0,1,0,
17,4476.41,4014.36,4355.9,4173.33,4084.62,3589.23,4412.82,4447.18,4742.05,4507.18,4520,4343.59,4312.31,3980,1651,1692,2.111,0,0,0,0,1,0,
18,4480.51,4020.51,4359.49,4182.05,4106.15,3592.82,4415.9,4458.46,4747.18,4509.74,4519.49,4350.77,4318.46,3986.67,1650,1694,2.119,0,0,0,0,1,0,
19,4478.97,4019.49,4366.15,4184.1,4096.92,3603.59,4421.03,4460.51,4749.23,4522.56,4526.67,4351.79,4325.13,3994.36,1651,1695,2.127,0,0,0,0,1,0,
20,4487.18,4021.03,4372.82,4184.62,4087.69,3606.15,4427.69,4457.44,4751.79,4533.33,4533.33,4359.49,4328.72,3996.92,1650,1695,2.135,0,0,0,0,1,0,
21,4490.77,4023.08,4371.28,4182.05,4099.49,3594.87,4426.67,4459.49,4752.82,4528.72,4532.82,4368.21,4328.72,3993.33,1651,1696,2.142,0,0,0,0,1,0,
22,4480,4021.54,4368.72,4174.36,4101.54,3591.28,4425.13,4461.03,4751.79,4522.05,4534.36,4364.62,4328.72,3991.28,1651,1694,2.15,0,0,0,0,1,0,
23,4473.85,4017.95,4367.18,4171.79,4087.69,3594.36,4428.21,4460.51,4751.79,4525.13,4533.85,4356.92,4329.23,3992.31,1651,1695,2.158,0,0,0,0,1,0,
24,4476.41,4010.26,4361.54,4171.79,4082.05,3590.77,4423.08,4455.9,4748.21,4522.05,4524.62,4353.85,4322.05,3990.26,1650,1695,2.166,0,0,0,0,1,0,
25,4471.79,4002.05,4353.85,4166.15,4077.95,3587.69,4411.79,4443.08,4735.9,4511.79,4520,4349.74,4311.28,3985.64,1651,1696,2.174,0,0,0,0,1,0,
26,4467.18,4003.59,4352.31,4164.62,4072.31,3591.28,4415.9,4441.03,4731.79,4511.79,4524.62,4347.69,4312.82,3984.62,1650,1695,2.182,0,0,0,0,1,0,
27,4471.79,4011.28,4357.44,4170.26,4078.46,3594.36,4427.69,4455.9,4745.13,4524.1,4525.13,4354.87,4321.54,3986.67,1652,1694,2.189,0,0,0,0,1,0,
28,4474.87,4015.38,4360,4173.33,4090.77,3591.79,4423.59,4459.49,4751.79,4523.59,4523.59,4358.97,4322.05,3989.23,1651,1695,2.197,0,0,0,0,1,0,
29,4474.36,4016.41,4356.92,4170.77,4095.9,3589.23,4413.85,4454.87,4742.56,4511.79,4523.59,4356.92,4316.41,3990.26,1652,1695,2.205,0,0,0,0,1,0,
30,4477.95,4021.03,4356.41,4170.77,4088.72,3590.77,4419.49,4455.38,4738.46,4508.21,4523.08,4355.38,4314.87,3986.15,1652,1696,2.213,0,0,0,0,1,0,
31,4480,4020.51,4356.92,4171.79,4081.03,3591.79,4427.69,4449.23,4741.54,4510.26,4522.05,4353.33,4311.28,3982.05,1653,1697,2.221,0,0,0,0,1,0,
32,4472.82,4014.87,4355.9,4169.74,4085.64,3590.26,4426.15,4446.67,4743.08,4505.64,4518.46,4347.18,4307.69,3985.64,1652,1698,2.228,0,0,0,0,1,0,
33,4471.79,4016.92,4361.03,4170.77,4098.46,3591.28,4428.72,4458.46,4748.21,4509.23,4521.03,4351.79,4315.9,3998.46,1653,1698,2.236,0,0,0,0,1,0,
34,4483.08,4022.05,4368.21,4177.44,4098.46,3593.33,4435.38,4465.13,4753.85,4525.64,4527.18,4364.62,4326.67,4006.67,1652,1697,2.244,0,0,0,0,1,0,
35,4483.59,4015.9,4367.18,4177.95,4087.69,3590.77,4430.77,4459.49,4750.26,4522.56,4525.13,4362.56,4320.51,4001.03,1653,1698,2.252,0,0,0,0,1,0,
36,4473.85,4009.74,4365.13,4173.33,4088.72,3587.69,4422.05,4456.41,4746.67,4508.72,4520.51,4354.36,4308.72,3992.31,1654,1696,2.26,0,0,0,0,1,0,
37,4473.33,4012.31,4366.15,4172.31,4093.85,3588.72,4418.46,4453.33,4748.72,4515.38,4520.51,4354.36,4309.23,3991.28,1653,1697,2.268,0,0,0,0,1,0,
38,4478.46,4012.31,4358.97,4171.79,4084.62,3588.21,4413.33,4446.15,4743.59,4519.49,4520.51,4351.79,4310.77,3989.74,1654,1696,2.275,0,0,0,0,1,0,
39,4476.41,4009.74,4351.28,4170.77,4080,3585.13,4416.41,4445.64,4738.97,4508.21,4520,4348.21,4307.69,3986.67,1654,1696,2.283,0,0,0,0,1,0,
40,4471.28,4009.74,4355.38,4171.28,4084.1,3585.64,4422.56,4448.21,4741.03,4505.13,4520,4351.28,4307.69,3986.67,1653,1695,2.291,0,0,0,0,1,0,
41,4470.77,4010.77,4358.97,4169.74,4077.95,3587.69,4420,4447.69,4738.97,4509.74,4517.95,4349.23,4308.72,3988.72,1652,1696,2.299,0,0,0,0,1,0,
42,4472.31,4011.79,4356.41,4167.69,4076.92,3585.64,4420.51,4446.15,4732.82,4507.18,4517.95,4344.1,4310.26,3989.23,1653,1695,2.307,0,0,0,0,1,0,
43,4474.87,4012.31,4355.9,4170.26,4088.72,3585.64,4424.1,4447.18,4733.85,4507.18,4521.03,4348.21,4311.79,3989.74,1652,1694,2.314,0,0,0,0,1,0,
44,4474.36,4014.36,4358.46,4172.31,4087.18,3587.69,4420.51,4447.18,4734.87,4509.74,4521.03,4351.28,4310.26,3989.74,1652,1693,2.322,0,0,0,0,1,0,
45,4474.36,4015.9,4355.38,4169.74,4077.44,3587.18,4418.97,4447.69,4731.28,4507.18,4522.05,4347.69,4313.85,3990.26,1651,1691,2.33,0,0,0,0,1,0,
46,4475.9,4014.87,4348.72,4167.69,4085.13,3584.62,4419.49,4452.82,4737.44,4511.28,4524.62,4347.18,4320.51,3989.74,1652,1692,2.338,0,0,0,0,1,0,
47,4475.9,4014.36,4349.23,4167.69,4093.85,3585.64,4412.31,4455.9,4748.21,4520,4523.59,4347.69,4321.03,3989.74,1653,1689,2.346,0,0,0,0,1,0,
48,4476.92,4019.49,4359.49,4169.23,4093.33,3587.18,4415.38,4457.95,4751.79,4528.72,4528.21,4349.74,4325.64,3997.95,1651,1689,2.354,0,0,0,0,1,0,
49,4480.51,4021.03,4365.64,4171.28,4094.36,3587.69,4426.67,4461.54,4752.82,4537.44,4541.54,4360.51,4334.36,4006.67,1653,1688,2.361,0,0,0,0,1,0,
50,4479.49,4015.9,4361.03,4170.26,4088.72,3587.18,4423.08,4461.03,4750.26,4535.9,4537.44,4365.13,4331.79,3998.46,1652,1688,2.369,0,0,0,0,1,0,
51,4473.85,4015.9,4356.92,4168.72,4082.05,3586.15,4413.33,4454.87,4742.05,4526.67,4524.1,4357.95,4323.59,3995.38,1653,1688,2.377,0,0,0,0,1,0,
52,4475.38,4020,4359.49,4170.26,4088.21,3586.15,4417.44,4454.36,4741.54,4522.05,4528.21,4355.9,4324.1,4004.1,1652,1686,2.385,0,0,0,0,1,0,
53,4479.49,4016.92,4364.1,4170.77,4090.77,3587.69,4425.64,4460.51,4747.69,4522.05,4532.31,4360.51,4325.13,3997.95,1653,1687,2.393,0,0,0,0,1,0,
54,4475.38,4013.85,4364.1,4168.72,4081.03,3589.74,4422.56,4457.44,4742.05,4519.49,4523.08,4357.44,4318.46,3984.1,1653,1686,2.4,0,0,0,0,1,0,
55,4471.28,4018.97,4357.44,4169.23,4082.05,3587.18,4414.87,4447.18,4733.33,4516.41,4520,4349.23,4314.87,3986.67,1653,1686,2.408,0,0,0,0,1,0,
56,4474.36,4021.54,4351.28,4169.74,4091.79,3585.13,4413.33,4443.59,4735.9,4511.79,4525.13,4347.69,4318.46,3994.36,1654,1685,2.416,0,0,0,0,1,0,
57,4470.77,4014.36,4352.31,4167.18,4093.33,3586.15,4415.38,4444.1,4737.95,4507.69,4523.59,4346.15,4320,3988.72,1653,1686,2.424,0,0,0,0,1,0,
58,4458.97,4010.77,4353.85,4166.15,4087.18,3582.05,4414.87,4443.08,4732.82,4507.69,4519.49,4340.51,4311.79,3976.92,1654,1685,2.432,0,0,0,0,1,0,
59,4457.44,4011.28,4351.28,4167.69,4082.05,3580,4412.31,4441.03,4729.23,4506.15,4518.46,4341.03,4307.18,3974.36,1653,1686,2.44,0,0,0,0,1,0,
60,4468.72,4016.41,4352.82,4168.21,4081.54,3586.15,4413.85,4443.59,4732.31,4509.74,4524.1,4351.79,4319.49,3987.69,1654,1686,2.447,0,0,0,0,1,0,
61,4476.92,4026.15,4361.54,4172.82,4085.64,3589.23,4417.44,4454.36,4742.05,4517.95,4535.9,4363.08,4330.77,4001.03,1652,1687,2.455,0,0,0,0,1,0,
62,4483.08,4030.26,4366.67,4183.59,4090.77,3588.72,4418.97,4460.51,4749.74,4522.56,4541.54,4367.18,4327.69,4000.51,1653,1688,2.463,0,0,0,0,1,0,
63,4486.15,4027.18,4361.54,4184.1,4092.31,3588.21,4416.41,4452.31,4747.69,4523.59,4538.97,4363.08,4325.64,3997.44,1653,1688,2.471,0,0,0,0,1,0,
64,4480.51,4027.69,4355.9,4175.9,4090.26,3585.64,4414.87,4445.13,4738.97,4521.03,4530.26,4356.92,4326.15,3995.9,1653,1689,2.479,0,0,0,0,1,0,
65,4475.38,4031.28,4358.46,4176.41,4090.26,3587.69,4415.9,4446.15,4736.92,4521.03,4525.13,4359.49,4321.54,3994.36,1654,1689,2.486,0,0,0,0,1,0,
66,4475.9,4028.21,4360,4177.44,4090.77,3587.69,4415.38,4444.62,4737.95,4520.51,4525.13,4358.46,4317.44,3993.33,1654,1691,2.494,0,0,0,0,1,0,
67,4475.9,4026.67,4356.92,4169.74,4087.69,3575.38,4411.79,4440.51,4733.33,4512.31,4523.59,4349.23,4315.9,3991.28,1654,1691,2.502,0,0,0,0,1,0,
68,4476.92,4027.18,4355.9,4168.72,4082.05,3576.92,4408.72,4441.54,4734.36,4511.28,4522.05,4347.69,4316.92,3990.77,1654,1693,2.51,0,0,0,0,1,0,
69,4477.44,4022.05,4357.44,4172.82,4079.49,3588.72,4410.26,4443.59,4741.03,4522.05,4524.1,4352.82,4315.9,3987.69,1655,1691,2.518,0,0,0,0,1,0,
70,4470.77,4018.97,4357.44,4169.74,4084.62,3583.08,4413.33,4443.59,4740.51,4522.05,4523.08,4351.28,4313.85,3986.67,1654,1693,2.526,0,0,0,0,1,0,
71,4469.74,4026.15,4356.41,4167.69,4092.82,3579.49,4414.87,4443.08,4735.38,4513.33,4522.05,4349.74,4314.87,3990.77,1656,1692,2.533,0,0,0,0,1,0,
72,4474.87,4029.23,4357.44,4171.28,4092.82,3587.18,4414.36,4443.59,4734.87,4511.79,4524.1,4351.79,4315.38,3992.31,1655,1691,2.541,0,0,0,0,1,0,
73,4477.44,4024.62,4356.92,4172.82,4083.59,3579.49,4413.85,4443.08,4734.36,4509.23,4522.05,4349.74,4313.85,3987.69,1655,1692,2.549,0,0,0,0,1,0,
74,4477.95,4025.64,4357.95,4171.79,4081.03,3570.26,4411.79,4443.08,4733.33,4506.15,4521.54,4348.21,4315.9,3992.31,1656,1691,2.557,0,0,0,0,1,0,
75,4479.49,4029.74,4360,4172.31,4086.15,3576.92,4410.77,4444.62,4734.87,4513.33,4525.64,4352.82,4321.03,4001.54,1656,1691,2.565,0,0,0,0,1,0,
76,4480,4028.21,4358.97,4172.82,4081.03,3577.95,4411.79,4445.13,4734.87,4521.54,4525.13,4355.38,4317.95,3998.46,1656,1691,2.572,0,0,0,0,1,0,
77,4478.97,4026.67,4360,4171.79,4077.44,3576.41,4410.77,4443.08,4734.36,4520,4521.03,4354.87,4312.82,3988.72,1656,1690,2.58,0,0,0,0,1,0,
78,4477.44,4029.23,4364.1,4172.82,4087.69,3585.64,4415.38,4444.62,4737.95,4512.82,4523.08,4357.95,4311.79,3990.26,1656,1689,2.588,0,0,0,0,1,0,
79,4475.9,4029.74,4362.56,4172.82,4092.82,3594.36,4421.54,4445.64,4736.41,4506.67,4527.69,4355.38,4311.28,3991.79,1655,1689,2.596,0,0,0,0,1,0,
80,4473.85,4024.1,4354.36,4170.26,4083.59,3587.18,4416.41,4435.9,4726.67,4505.13,4518.46,4344.1,4310.26,3978.97,1656,1687,2.604,0,0,0,0,1,0,
81,4470.77,4019.49,4348.21,4167.69,4079.49,3575.38,4409.74,4430.77,4725.13,4506.15,4509.74,4339.49,4306.15,3973.33,1655,1686,2.612,0,0,0,0,1,0,
82,4470.77,4020.51,4352.31,4168.21,4084.1,3576.92,4412.82,4439.49,4732.82,4505.13,4517.44,4348.21,4308.21,3985.64,1655,1684,2.619,0,0,0,0,1,0,
83,4473.33,4022.56,4359.49,4171.28,4082.56,3587.69,4413.85,4446.15,4735.38,4510.77,4526.67,4356.41,4317.95,3993.33,1655,1685,2.627,0,0,0,0,1,0,
84,4474.36,4021.03,4358.46,4172.31,4074.87,3590.26,4410.77,4440.51,4733.33,4521.54,4523.59,4351.79,4321.03,3992.82,1656,1684,2.635,0,0,0,0,1,0,
85,4473.33,4018.97,4349.74,4168.72,4073.33,3580.51,4410.77,4435.9,4731.79,4516.41,4518.97,4344.62,4312.31,3988.21,1656,1684,2.643,0,0,0,0,1,0,
86,4472.82,4019.49,4347.69,4167.18,4082.56,3576.41,4411.79,4438.97,4731.79,4504.1,4520.51,4343.59,4303.59,3978.46,1656,1683,2.651,0,0,0,0,1,0,
87,4472.31,4021.03,4352.31,4170.26,4091.28,3584.62,4416.92,4442.56,4734.36,4507.18,4521.54,4346.67,4308.21,3978.46,1656,1683,2.659,0,0,0,0,1,0,
88,4473.33,4021.54,4354.36,4170.77,4090.77,3590.77,4422.56,4443.08,4734.87,4512.31,4523.59,4347.69,4313.33,3987.18,1657,1680,2.666,0,0,0,0,1,0,
89,4474.87,4023.59,4354.87,4170.77,4090.26,3588.21,4420,4442.05,4731.28,4509.23,4524.1,4349.23,4311.28,3988.21,1657,1680,2.674,0,0,0,0,1,0,
90,4476.92,4028.72,4357.95,4173.85,4091.28,3586.67,4418.46,4443.08,4732.82,4512.31,4522.56,4352.31,4311.28,3988.72,1659,1679,2.682,0,0,0,0,1,0,
91,4476.92,4028.72,4358.97,4172.82,4083.08,3590.26,4424.1,4444.1,4733.85,4511.28,4522.56,4352.31,4313.85,3992.82,1658,1676,2.69,0,0,0,0,1,0,
92,4476.41,4026.15,4356.92,4169.23,4077.44,3589.23,4427.18,4442.56,4731.28,4508.21,4522.56,4350.26,4311.79,3988.72,1659,1676,2.698,0,0,0,0,1,0,
93,4477.44,4032.31,4362.05,4170.77,4086.67,3589.74,4426.67,4443.59,4733.85,4518.97,4522.56,4352.82,4314.36,3987.18,1660,1674,2.705,0,0,0,0,1,0,
94,4479.49,4035.38,4366.67,4173.85,4094.36,3592.31,4428.72,4446.15,4736.92,4523.59,4522.05,4357.44,4320,3989.74,1659,1674,2.713,0,0,0,0,1,0,
95,4478.46,4029.23,4360,4171.79,4086.67,3590.26,4426.67,4446.15,4735.38,4512.82,4521.54,4352.82,4315.38,3982.56,1660,1674,2.721,0,0,0,0,1,0,
96,4473.85,4026.67,4354.87,4168.72,4079.49,3587.69,4421.54,4444.1,4734.36,4507.69,4517.44,4342.56,4308.21,3971.79,1660,1674,2.729,0,0,0,0,1,0,
97,4471.28,4028.72,4355.9,4169.23,4085.64,3588.21,4422.05,4445.64,4735.9,4510.77,4511.28,4341.03,4310.77,3969.74,1660,1673,2.737,0,0,0,0,1,0,
98,4472.82,4028.72,4352.31,4168.72,4088.72,3590.26,4427.69,4446.67,4735.9,4507.69,4508.21,4343.08,4310.77,3972.31,1660,1672,2.745,0,0,0,0,1,0,
99,4474.87,4028.21,4347.18,4168.21,4084.1,3589.74,4425.64,4444.1,4733.85,4504.1,4507.69,4340.51,4304.1,3972.31,1660,1669,2.752,0,0,0,0,1,0,
100,4474.87,4029.23,4352.31,4169.74,4082.05,3590.26,4422.05,4442.56,4730.77,4504.1,4508.72,4340,4304.1,3972.82,1659,1666,2.76,0,0,0,0,1,0,
101,4473.85,4029.23,4356.92,4171.79,4082.56,3589.74,4420,4442.05,4724.62,4503.59,4508.21,4341.03,4307.18,3974.36,1660,1665,2.768,0,0,0,0,1,0,
102,4472.31,4028.21,4353.85,4170.26,4083.59,3587.18,4416.92,4441.03,4724.1,4505.64,4507.69,4342.56,4307.18,3974.36,1660,1664,2.776,0,0,0,0,1,0,
103,4475.9,4028.21,4358.46,4169.74,4085.64,3585.13,4418.97,4443.08,4731.79,4510.26,4512.82,4350.26,4309.74,3972.82,1660,1665,2.784,0,0,0,0,1,0,
104,4481.54,4029.74,4365.64,4171.28,4087.69,3585.64,4421.03,4446.15,4735.9,4510.77,4522.05,4357.44,4312.31,3972.31,1661,1666,2.791,0,0,0,0,1,0,
105,4478.97,4029.74,4361.54,4171.79,4083.08,3586.67,4419.49,4446.15,4733.85,4513.33,4525.64,4354.87,4310.77,3974.36,1660,1669,2.799,0,0,0,0,1,0,
106,4473.85,4029.23,4355.9,4171.28,4076.92,3586.15,4422.05,4448.72,4733.33,4520,4523.08,4349.74,4314.87,3977.95,1663,1666,2.807,0,0,0,0,1,0,
107,4476.41,4030.26,4357.95,4170.77,4078.97,3587.18,4426.67,4456.41,4734.87,4522.56,4523.59,4350.77,4322.05,3984.1,1663,1663,2.815,0,0,0,0,1,0,
108,4476.92,4030.77,4362.05,4171.28,4081.03,3592.82,4427.69,4460.51,4736.41,4521.54,4526.15,4351.79,4316.92,3984.1,1663,1661,2.823,0,0,0,0,1,0,
109,4470.77,4030.77,4362.05,4172.31,4082.05,3592.82,4426.67,4455.9,4736.41,4524.1,4521.54,4351.28,4311.28,3975.38,1663,1661,2.831,0,0,0,0,1,0,
110,4472.31,4030.26,4361.03,4171.79,4086.15,3590.26,4427.69,4450.77,4734.87,4521.54,4512.82,4350.77,4310.26,3973.85,1664,1664,2.838,0,0,0,0,1,0,
111,4472.82,4025.13,4355.9,4168.72,4080,3591.28,4424.1,4446.67,4731.79,4508.72,4509.23,4347.69,4301.54,3971.28,1663,1667,2.846,0,0,0,0,1,0,
112,4461.03,4015.9,4348.21,4165.64,4066.67,3586.67,4420.51,4441.03,4728.72,4500.51,4505.64,4340.51,4289.23,3961.03,1664,1669,2.854,0,0,0,0,1,0,
113,4462.05,4015.9,4351.79,4166.15,4073.85,3586.67,4423.08,4446.15,4733.33,4507.69,4505.64,4341.54,4292.82,3961.03,1665,1668,2.862,0,0,0,0,1,0,
114,4476.92,4028.72,4364.62,4175.9,4092.31,3597.44,4429.23,4458.97,4746.67,4522.05,4518.97,4353.33,4310.77,3978.97,1665,1667,2.87,0,0,0,0,1,0,
115,4481.54,4037.95,4368.21,4183.59,4098.46,3596.92,4431.28,4462.05,4753.33,4527.69,4528.72,4357.95,4318.46,3990.26,1667,1663,2.877,0,0,0,0,1,0,
116,4475.9,4035.38,4365.13,4182.56,4100.51,3589.74,4429.23,4458.97,4751.79,4525.64,4523.08,4354.36,4311.79,3984.1,1667,1666,2.885,0,0,0,0,1,0,
117,4476.92,4034.87,4369.74,4182.56,4102.56,3599.49,4429.74,4462.05,4750.77,4528.21,4521.54,4355.38,4310.77,3977.95,1667,1669,2.893,0,0,0,0,1,0,
118,4477.95,4037.44,4368.72,4184.62,4096.92,3605.13,4431.28,4456.41,4746.15,4525.64,4522.05,4353.85,4313.33,3976.41,1667,1675,2.901,0,0,0,0,1,0,
119,4467.69,4032.82,4356.41,4177.95,4092.82,3593.33,4429.23,4444.1,4737.44,4513.33,4511.79,4344.62,4304.1,3971.28,1668,1677,2.909,0,0,0,0,1,0,
120,4457.44,4025.13,4353.33,4169.74,4091.79,3587.18,4426.67,4442.56,4734.87,4506.67,4504.62,4338.97,4295.38,3966.15,1668,1675,2.917,0,0,0,0,1,0,
121,4461.03,4024.62,4357.95,4172.82,4085.64,3589.74,4428.21,4447.18,4735.38,4507.69,4507.18,4337.95,4297.44,3964.62,1668,1671,2.924,0,0,0,0,1,0,
122,4460,4021.03,4352.31,4171.79,4076.92,3587.18,4427.69,4445.64,4732.31,4508.21,4506.15,4331.28,4296.41,3961.03,1668,1670,2.932,0,0,0,0,1,0,
123,4445.64,4010.77,4340.51,4159.49,4074.87,3584.62,4420.51,4441.03,4730.77,4508.21,4501.03,4325.13,4289.74,3953.85,1669,1672,2.94,0,0,0,0,1,0,
124,4446.67,4010.26,4340.51,4152.82,4078.97,3586.15,4421.54,4447.18,4733.33,4507.69,4502.56,4328.72,4289.74,3957.44,1668,1677,2.949,0,0,0,0,1,0,
125,4461.54,4016.41,4349.74,4160.51,4076.92,3589.74,4428.72,4457.44,4738.97,4511.79,4508.21,4338.46,4295.38,3964.1,1669,1683,2.956,0,0,0,0,1,0,
126,4460.51,4015.38,4353.33,4167.69,4073.85,3590.77,4429.23,4454.36,4742.05,4523.08,4509.23,4344.1,4296.92,3964.62,1670,1681,2.963,0,0,0,0,1,0,
127,4454.36,4015.38,4352.31,4167.18,4079.49,3588.21,4423.59,4445.13,4738.97,4524.62,4507.18,4341.03,4295.9,3963.59,1668,1680,2.971,0,0,0,0,1,0,
128,4457.44,4022.05,4352.31,4167.18,4082.56,3587.69,4419.49,4444.62,4734.36,4512.31,4505.13,4336.92,4295.38,3960.51,1670,1676,2.979,0,0,0,0,1,0,
0,4461.03,4023.59,4354.36,4168.21,4084.62,3589.23,4421.03,4445.64,4732.82,4506.15,4505.64,4338.46,4294.87,3957.95,1668,1674,2.987,0,0,0,0,1,0,
1,4458.97,4019.49,4357.95,4168.21,4091.28,3590.26,4424.1,4443.59,4734.36,4508.72,4506.15,4338.46,4294.36,3960.51,1669,1677,2.995,0,0,0,0,1,0,
2,4456.92,4018.97,4354.87,4167.69,4088.21,3588.72,4425.13,4446.15,4733.33,4507.18,4503.59,4333.85,4292.31,3961.54,1668,1682,3.003,0,0,0,0,1,0,
3,4456.41,4017.95,4350.26,4167.69,4081.03,3584.62,4423.59,4445.13,4735.9,4505.13,4500,4332.31,4290.77,3957.95,1665,1687,3.01,0,0,0,0,1,0,
4,4460,4023.08,4350.77,4168.21,4087.18,3591.28,4426.67,4446.15,4744.1,4513.85,4505.13,4335.38,4295.9,3958.97,1665,1689,3.018,0,0,0,0,1,0,
5,4459.49,4028.21,4348.21,4168.21,4094.36,3602.05,4429.23,4455.9,4749.74,4524.1,4509.74,4335.38,4300,3962.05,1663,1689,3.026,0,0,0,0,1,0,
6,4456.92,4023.08,4343.59,4167.18,4089.23,3597.44,4428.21,4460.51,4750.77,4522.56,4506.15,4332.82,4297.95,3959.49,1662,1688,3.034,0,0,0,0,1,0,
7,4460,4020.51,4343.59,4169.74,4088.21,3590.26,4428.21,4453.85,4749.23,4521.03,4505.13,4334.87,4296.92,3958.46,1657,1687,3.042,0,0,0,0,1,0,
8,4457.44,4018.97,4344.1,4167.69,4089.74,3589.74,4425.13,4446.67,4741.03,4518.97,4509.23,4333.85,4293.85,3958.46,1654,1689,3.05,0,0,0,0,1,0,
9,4448.72,4010.77,4341.54,4157.95,4083.08,3589.23,4417.44,4442.56,4731.28,4508.72,4502.56,4325.64,4283.08,3956.41,1653,1693,3.057,0,0,0,0,1,0,
10,4453.33,4005.64,4340,4156.92,4077.44,3584.62,4410.77,4440.51,4729.74,4502.05,4495.9,4323.08,4278.46,3953.85,1651,1694,3.065,0,0,0,0,1,0,
11,4457.44,4007.18,4338.46,4160,4080.51,3578.97,4411.79,4441.03,4730.77,4505.13,4500.51,4328.21,4282.05,3955.38,1651,1693,3.073,0,0,0,0,1,0,
12,4443.08,4006.15,4336.41,4155.9,4076.92,3575.38,4413.33,4440.51,4726.67,4504.1,4502.56,4328.21,4281.03,3956.92,1649,1691,3.081,0,0,0,0,1,0,
13,4441.03,4009.74,4340,4157.95,4063.59,3574.87,4412.31,4439.49,4724.62,4503.59,4501.03,4327.18,4280.51,3954.87,1649,1689,3.089,0,0,0,0,1,0,
14,4457.44,4016.41,4346.15,4168.72,4067.18,3575.9,4418.46,4438.97,4726.15,4506.67,4502.05,4332.31,4289.74,3957.95,1648,1689,3.096,0,0,0,0,1,0,
15,4463.59,4018.97,4351.79,4169.74,4086.15,3579.49,4427.69,4439.49,4725.64,4505.64,4505.13,4338.97,4296.41,3967.69,1648,1691,3.104,0,0,0,0,1,0,
16,4463.59,4025.64,4356.92,4169.23,4093.85,3587.69,4430.77,4442.05,4728.21,4512.31,4513.85,4342.05,4300.51,3976.41,1649,1692,3.112,0,0,0,0,1,0,
17,4466.15,4031.28,4357.95,4172.82,4087.69,3590.26,4429.74,4442.56,4734.87,4523.59,4522.05,4341.54,4306.67,3977.44,1648,1694,3.12,0,0,0,0,1,0,
18,4462.56,4026.67,4352.82,4170.77,4081.54,3585.13,4428.72,4441.54,4734.87,4521.03,4520.51,4338.46,4310.26,3973.33,1651,1694,3.128,0,0,0,0,1,0,
19,4458.97,4024.1,4352.31,4169.23,4083.08,3584.1,4428.21,4443.59,4735.9,4517.44,4519.49,4340,4310.77,3975.9,1650,1694,3.136,0,0,0,0,1,0,
20,4467.18,4028.21,4356.92,4171.79,4085.64,3588.21,4428.21,4447.18,4743.08,4525.64,4525.13,4343.59,4313.33,3980,1652,1695,3.144,0,0,0,0,1,0,
21,4472.82,4030.26,4357.44,4171.79,4083.08,3585.64,4424.1,4443.08,4741.03,4528.72,4525.64,4340.51,4314.36,3977.44,1653,1693,3.151,0,0,0,0,1,0,
22,4472.31,4028.21,4356.92,4173.85,4082.56,3578.46,4418.46,4444.1,4737.44,4524.1,4522.05,4342.56,4311.28,3980.51,1654,1693,3.159,0,0,0,0,1,0,
23,4472.82,4029.23,4360.51,4176.41,4091.28,3580.51,4424.1,4455.38,4744.62,4526.15,4522.56,4349.74,4310.77,3990.77,1654,1691,3.167,0,0,0,0,1,0,
24,4467.69,4028.21,4360,4171.79,4093.33,3589.74,4431.28,4455.9,4744.62,4529.74,4523.08,4345.64,4314.36,3988.21,1656,1690,3.175,0,0,0,0,1,0,
25,4458.46,4022.05,4353.85,4167.69,4078.46,3587.69,4428.72,4445.13,4733.85,4522.05,4515.38,4336.41,4308.72,3973.33,1656,1689,3.182,0,0,0,0,1,0,
26,4455.9,4015.9,4349.23,4166.15,4068.21,3576.41,4424.62,4440.51,4730.77,4513.85,4506.15,4336.92,4299.49,3968.21,1657,1692,3.19,0,0,0,0,1,0,
27,4460.51,4017.44,4350.77,4168.21,4079.49,3576.92,4428.21,4444.1,4735.9,4517.44,4512.82,4341.03,4303.08,3978.97,1658,1692,3.198,0,0,0,0,1,0,
28,4463.08,4026.67,4358.97,4181.03,4092.31,3583.08,4425.13,4445.64,4736.92,4522.05,4522.05,4342.05,4313.85,3987.69,1659,1693,3.206,0,0,0,0,1,0,
29,4462.05,4028.21,4365.64,4184.62,4086.15,3577.95,4413.85,4444.62,4735.38,4521.54,4512.82,4343.08,4312.31,3978.46,1660,1692,3.214,0,0,0,0,1,0,
30,4460,4020.51,4364.1,4172.82,4071.79,3569.23,4407.69,4442.05,4735.38,4518.46,4505.13,4343.59,4305.64,3969.74,1660,1690,3.222,0,0,0,0,1,0,
31,4460.51,4023.08,4363.08,4172.82,4077.44,3569.74,4409.74,4441.54,4733.85,4512.31,4510.77,4344.1,4309.23,3978.46,1660,1690,3.229,0,0,0,0,1,0,
32,4461.54,4030.26,4366.15,4179.49,4088.21,3572.82,4411.79,4442.05,4731.28,4506.15,4511.79,4344.62,4310.77,3985.13,1661,1689,3.237,0,0,0,0,1,0,
33,4460,4022.56,4364.1,4171.79,4081.54,3572.31,4412.82,4435.9,4729.74,4506.67,4505.64,4341.54,4300,3976.92,1660,1690,3.245,0,0,0,0,1,0,
34,4459.49,4021.03,4356.92,4165.64,4073.85,3572.82,4414.36,4430.26,4726.67,4509.23,4504.62,4338.46,4293.85,3970.26,1660,1692,3.253,0,0,0,0,1,0,
35,4462.05,4027.69,4353.85,4172.82,4076.92,3572.31,4413.85,4434.36,4725.13,4506.15,4505.64,4337.44,4295.9,3970.26,1659,1694,3.261,0,0,0,0,1,0,
36,4467.69,4023.59,4356.92,4174.87,4078.97,3572.31,4415.38,4441.03,4729.23,4506.15,4506.67,4338.46,4296.41,3971.79,1659,1694,3.268,0,0,0,0,1,0,
37,4472.82,4022.05,4358.97,4170.77,4074.87,3572.31,4416.41,4443.08,4732.82,4508.21,4508.72,4340,4295.38,3970.77,1659,1694,3.276,0,0,0,0,1,0,
38,4475.9,4026.15,4356.41,4170.26,4073.33,3569.23,4414.36,4442.56,4732.31,4508.21,4506.15,4340.51,4294.36,3970.26,1659,1693,3.284,0,0,0,0,1,0,
39,4471.79,4025.64,4358.46,4171.28,4078.46,3570.77,4416.92,4443.08,4734.36,4514.36,4509.74,4341.54,4296.41,3979.49,1657,1693,3.292,0,0,0,0,1,0,
40,4463.08,4024.62,4364.1,4171.28,4083.08,3573.85,4424.62,4442.05,4733.85,4518.46,4518.97,4344.62,4305.64,3988.21,1659,1694,3.3,0,0,0,0,1,0,
41,4460.51,4024.1,4358.46,4170.77,4080,3573.33,4427.18,4435.38,4724.1,4511.79,4515.9,4342.56,4306.67,3978.97,1657,1694,3.308,0,0,0,0,1,0,
42,4462.05,4016.41,4349.74,4170.26,4075.38,3573.33,4421.03,4430.77,4720,4507.18,4506.15,4336.92,4298.46,3972.31,1657,1698,3.315,0,0,0,0,1,0,
43,4461.03,4016.41,4350.77,4170.77,4075.9,3574.36,4416.41,4435.38,4727.18,4509.74,4506.15,4333.85,4300.51,3980,1656,1699,3.323,0,0,0,0,1,0,
44,4461.54,4025.64,4355.9,4172.31,4075.38,3573.85,4418.46,4441.54,4733.85,4511.28,4512.82,4333.85,4307.69,3977.95,1656,1702,3.331,0,0,0,0,1,0,
45,4470.26,4030.26,4354.87,4174.36,4080.51,3574.36,4425.13,4441.54,4733.85,4515.9,4517.95,4335.38,4309.74,3971.79,1657,1702,3.339,0,0,0,0,1,0,
46,4477.44,4029.23,4355.38,4178.46,4082.05,3577.44,4427.18,4441.03,4735.38,4523.08,4521.54,4340.51,4310.77,3983.08,1656,1705,3.347,0,0,0,0,1,0,
47,4476.41,4029.23,4357.95,4182.05,4076.41,3574.87,4425.13,4443.08,4733.85,4524.1,4522.05,4342.56,4312.31,3990.77,1656,1704,3.354,0,0,0,0,1,0,
48,4473.85,4034.87,4357.44,4183.08,4081.03,3573.85,4427.69,4443.59,4734.87,4524.1,4522.05,4341.03,4313.85,3983.08,1656,1705,3.362,0,0,0,0,1,0,
49,4480.51,4037.44,4358.97,4183.59,4090.77,3582.56,4431.79,4444.1,4744.1,4526.67,4524.62,4345.13,4318.46,3985.13,1657,1706,3.37,0,0,0,0,1,0,
50,4489.74,4032.31,4363.08,4183.59,4087.69,3588.72,4429.23,4445.13,4746.15,4527.69,4525.64,4349.23,4322.05,3993.33,1656,1707,3.378,0,0,0,0,1,0,
51,4481.54,4031.28,4365.13,4183.08,4080.51,3586.67,4426.67,4445.64,4739.49,4525.64,4525.13,4343.59,4316.41,3991.28,1658,1708,3.386,0,0,0,0,1,0,
52,4474.87,4034.36,4363.59,4185.13,4087.18,3586.15,4428.72,4446.15,4742.56,4525.13,4524.1,4342.05,4310.26,3987.18,1656,1707,3.394,0,0,0,0,1,0,
53,4480.51,4035.38,4365.13,4187.69,4092.82,3587.69,4429.23,4447.18,4749.74,4525.13,4523.59,4345.13,4314.36,3989.74,1656,1709,3.401,0,0,0,0,1,0,
54,4481.54,4033.85,4369.23,4186.67,4085.64,3586.67,4429.74,4445.64,4748.72,4525.64,4523.08,4347.69,4320,3992.31,1656,1707,3.409,0,0,0,0,1,0,
55,4480,4035.38,4369.74,4188.21,4084.62,3588.21,4431.28,4445.64,4747.18,4531.79,4525.13,4348.72,4320,3990.77,1655,1710,3.417,0,0,0,0,1,0,
56,4482.56,4036.41,4366.67,4188.72,4095.38,3587.69,4430.77,4447.18,4749.74,4533.33,4527.18,4345.64,4318.46,3988.21,1655,1710,3.425,0,0,0,0,1,0,
57,4476.92,4036.41,4364.1,4185.64,4097.95,3580.51,4427.18,4444.1,4744.62,4522.05,4525.64,4340,4318.97,3988.21,1655,1711,3.433,0,0,0,0,1,0,
58,4472.31,4035.38,4364.1,4185.64,4085.64,3574.36,4425.13,4442.56,4736.92,4519.49,4524.1,4340.51,4317.44,3983.59,1655,1712,3.441,0,0,0,0,1,0,
59,4476.92,4030.77,4362.05,4185.13,4076.92,3572.31,4425.64,4440.51,4733.85,4525.13,4522.56,4343.08,4312.82,3973.85,1654,1714,3.448,0,0,0,0,1,0,
60,4477.95,4027.69,4363.08,4183.08,4077.95,3574.36,4425.13,4435.38,4732.82,4514.87,4520,4340.51,4309.23,3975.38,1653,1715,3.456,0,0,0,0,1,0,
61,4475.9,4030.26,4366.67,4184.1,4080,3577.44,4426.67,4437.95,4732.82,4507.69,4520.51,4339.49,4309.74,3986.67,1653,1715,3.464,0,0,0,0,1,0,
62,4480.51,4029.23,4365.13,4184.1,4075.9,3575.9,4428.72,4444.1,4735.38,4518.46,4519.49,4343.59,4307.69,3987.18,1652,1711,3.472,0,0,0,0,1,0,
63,4485.13,4026.15,4365.13,4181.54,4074.36,3578.46,4428.72,4444.62,4739.49,4524.1,4519.49,4346.67,4308.72,3985.13,1650,1711,3.48,0,0,0,0,1,0,
64,4492.31,4029.74,4373.85,4183.59,4083.08,3590.26,4430.26,4444.62,4747.69,4522.56,4528.72,4351.79,4320.51,3995.38,1650,1710,3.487,0,0,0,0,1,0,
65,4490.77,4031.28,4374.87,4185.13,4084.1,3588.72,4430.26,4445.13,4747.69,4525.13,4530.77,4352.31,4323.08,3997.95,1650,1709,3.495,0,0,0,0,1,0,
66,4478.97,4028.21,4366.15,4182.56,4075.9,3579.49,4427.69,4441.54,4739.49,4526.67,4522.56,4345.64,4312.31,3987.69,1649,1708,3.503,0,0,0,0,1,0,
67,4480.51,4028.72,4363.59,4183.59,4076.41,3582.05,4427.69,4442.56,4742.56,4524.62,4522.05,4344.1,4308.72,3984.1,1647,1708,3.511,0,0,0,0,1,0,
68,4491.28,4031.79,4365.13,4184.62,4078.97,3581.54,4429.74,4446.15,4744.62,4521.54,4524.1,4346.67,4313.33,3987.69,1648,1708,3.519,0,0,0,0,1,0,
69,4490.26,4035.38,4368.72,4184.1,4074.87,3577.95,4428.21,4445.64,4739.49,4523.08,4522.56,4348.21,4316.41,3987.69,1646,1711,3.527,0,0,0,0,1,0,
70,4485.13,4039.49,4374.36,4186.67,4074.36,3584.1,4429.74,4447.18,4744.1,4531.28,4532.31,4353.33,4323.08,3988.72,1646,1713,3.534,0,0,0,0,1,0,
71,4489.74,4039.49,4370.26,4187.18,4080,3588.21,4432.31,4447.69,4749.74,4529.74,4540.51,4355.9,4328.72,3991.28,1644,1714,3.542,0,0,0,0,1,0,
72,4489.74,4036.92,4366.67,4184.62,4080.51,3583.59,4428.72,4443.59,4741.03,4521.03,4530.77,4349.74,4323.59,3987.69,1643,1716,3.55,0,0,0,0,1,0,
73,4481.03,4036.41,4372.82,4184.62,4078.97,3585.64,4426.67,4440.51,4735.9,4523.08,4522.05,4348.72,4318.97,3987.69,1642,1713,3.558,0,0,0,0,1,0,
74,4482.05,4034.36,4372.31,4185.64,4078.46,3589.23,4429.74,4441.03,4738.97,4526.15,4523.59,4352.31,4316.92,3988.21,1640,1714,3.566,0,0,0,0,1,0,
75,4488.72,4030.26,4365.13,4184.1,4076.92,3587.69,4430.26,4442.05,4738.46,4522.05,4524.62,4349.74,4313.33,3978.97,1640,1713,3.573,0,0,0,0,1,0,
76,4487.18,4029.74,4366.67,4185.13,4079.49,3588.21,4429.23,4442.56,4743.08,4524.1,4523.59,4350.26,4311.28,3978.97,1638,1714,3.581,0,0,0,0,1,0,
77,4476.41,4029.23,4365.13,4184.62,4080,3587.69,4429.23,4442.56,4747.18,4524.62,4522.56,4349.74,4309.74,3988.72,1638,1715,3.589,0,0,0,0,1,0,
78,4472.31,4028.21,4357.44,4181.54,4077.44,3588.21,4427.69,4444.1,4748.72,4520.51,4522.56,4344.1,4312.31,3983.08,1636,1716,3.597,0,0,0,0,1,0,
79,4475.38,4028.21,4357.44,4181.54,4076.41,3584.1,4426.67,4445.64,4748.21,4521.03,4523.08,4342.05,4312.31,3971.79,1636,1716,3.605,0,0,0,0,1,0,
80,4473.33,4024.62,4357.44,4182.56,4074.87,3578.97,4425.64,4444.1,4737.95,4514.87,4520,4343.08,4302.56,3975.9,1633,1715,3.612,0,0,0,0,1,0,
81,4472.82,4019.49,4358.97,4181.54,4072.31,3581.54,4426.67,4442.56,4729.74,4507.69,4517.95,4342.56,4296.41,3977.95,1633,1712,3.62,0,0,0,0,1,0,
82,4476.92,4021.54,4364.1,4182.56,4075.38,3587.69,4429.74,4443.59,4737.95,4516.41,4521.03,4345.64,4308.21,3971.79,1631,1707,3.628,0,0,0,0,1,0,
83,4477.95,4028.72,4367.69,4187.18,4078.46,3589.23,4430.77,4443.08,4742.56,4526.67,4522.05,4352.82,4318.46,3978.46,1631,1706,3.636,0,0,0,0,1,0,
84,4479.49,4032.82,4369.74,4188.21,4075.9,3586.67,4427.18,4441.03,4732.31,4522.56,4527.18,4354.87,4317.95,3991.28,1631,1706,3.644,0,0,0,0,1,0,
85,4488.72,4035.9,4374.36,4185.64,4076.92,3587.18,4428.21,4440.51,4733.85,4520,4536.41,4354.87,4322.05,3992.82,1629,1711,3.652,0,0,0,0,1,0,
86,4495.38,4040,4378.46,4190.77,4083.08,3590.77,4433.85,4446.15,4747.18,4528.21,4539.49,4361.03,4328.72,3990.26,1630,1710,3.659,0,0,0,0,1,0,
87,4493.85,4045.13,4381.54,4198.97,4084.62,3591.28,4436.41,4457.44,4753.85,4536.92,4536.92,4367.69,4329.23,4001.03,1629,1706,3.667,0,0,0,0,1,0,
88,4493.85,4043.08,4382.56,4193.85,4083.59,3590.26,4434.36,4463.08,4751.28,4538.46,4539.49,4365.64,4328.72,4007.69,1628,1700,3.676,0,0,0,0,1,0,
89,4492.31,4037.44,4374.87,4183.08,4081.54,3588.21,4431.28,4456.41,4742.56,4528.21,4536.92,4356.92,4328.72,3996.41,1628,1695,3.683,0,0,0,0,1,0,
90,4489.23,4039.49,4368.21,4186.15,4080.51,3590.26,4432.31,4447.69,4738.46,4518.46,4525.13,4352.82,4326.15,3985.64,1629,1695,3.691,0,0,0,0,1,0,
91,4492.31,4049.23,4372.82,4200,4086.15,3597.44,4434.36,4445.64,4748.21,4527.69,4527.69,4357.44,4325.64,3989.23,1629,1697,3.699,0,0,0,0,1,0,
92,4496.92,4053.85,4378.97,4204.1,4094.87,3597.95,4434.36,4447.69,4750.77,4538.97,4538.46,4358.97,4329.74,3997.95,1630,1699,3.706,0,0,0,0,1,0,
93,4490.77,4046.15,4370.77,4191.79,4087.18,3590.77,4429.74,4441.03,4738.97,4531.28,4530.77,4349.74,4322.05,3991.28,1631,1699,3.714,0,0,0,0,1,0,
94,4480,4036.41,4357.95,4182.56,4074.36,3587.18,4425.64,4428.72,4732.82,4520,4518.46,4340,4311.28,3975.9,1631,1701,3.722,0,0,0,0,1,0,
95,4476.92,4036.41,4358.46,4184.62,4077.44,3588.72,4425.13,4430.77,4734.87,4517.95,4521.54,4341.03,4315.38,3972.31,1633,1700,3.73,0,0,0,0,1,0,
96,4477.44,4036.92,4365.64,4184.62,4083.08,3587.69,4425.13,4442.05,4733.85,4515.38,4525.13,4344.62,4319.49,3975.38,1632,1702,3.738,0,0,0,0,1,0,
97,4476.41,4033.85,4364.62,4184.1,4080,3588.21,4425.64,4443.59,4737.44,4516.92,4522.56,4345.13,4313.33,3975.38,1634,1702,3.745,0,0,0,0,1,0,
98,4474.36,4033.33,4360,4184.1,4077.95,3590.26,4428.21,4442.05,4740.51,4522.05,4521.03,4341.03,4308.21,3972.82,1634,1703,3.753,0,0,0,0,1,0,
99,4472.82,4027.18,4355.38,4175.9,4079.49,3588.72,4427.69,4442.05,4734.87,4515.9,4513.33,4334.36,4304.62,3964.62,1636,1703,3.761,0,0,0,0,1,0,
100,4471.28,4020,4349.74,4168.21,4078.97,3587.69,4426.15,4433.85,4731.79,4505.64,4506.15,4330.77,4294.87,3953.33,1635,1701,3.769,0,0,0,0,1,0,
101,4472.82,4025.13,4349.23,4171.28,4076.41,3585.13,4427.69,4430.77,4733.33,4503.59,4510.77,4332.31,4290.26,3957.95,1637,1701,3.777,0,0,0,0,1,0,
102,4475.38,4031.79,4355.38,4176.41,4079.49,3586.67,4428.72,4442.05,4735.38,4505.64,4518.97,4335.38,4297.95,3971.79,1637,1702,3.785,0,0,0,0,1,0,
103,4475.9,4032.31,4358.97,4181.54,4082.05,3589.23,4427.18,4446.67,4738.97,4511.79,4520.51,4341.54,4306.15,3977.95,1637,1706,3.792,0,0,0,0,1,0,
104,4474.36,4031.28,4357.44,4183.08,4079.49,3582.05,4428.72,4442.05,4740,4507.69,4517.44,4342.56,4302.56,3973.33,1638,1710,3.8,0,0,0,0,1,0,
105,4473.33,4028.72,4355.9,4176.92,4075.9,3570.77,4428.21,4441.03,4734.87,4494.87,4520,4334.87,4294.87,3968.72,1638,1715,3.808,0,0,0,0,1,0,
106,4476.92,4027.69,4359.49,4175.9,4072.31,3576.41,4424.62,4442.56,4732.31,4495.9,4519.49,4333.33,4294.87,3971.79,1638,1718,3.816,0,0,0,0,1,0,
107,4480,4028.72,4363.59,4182.56,4076.41,3589.74,4432.31,4443.59,4734.36,4506.15,4510.77,4338.46,4296.41,3973.85,1637,1721,3.824,0,0,0,0,1,0,
108,4476.41,4024.1,4364.62,4183.59,4087.18,3588.72,4440.51,4444.62,4732.31,4506.15,4511.28,4340,4292.31,3970.77,1639,1720,3.832,0,0,0,0,1,0,
109,4477.44,4021.03,4364.1,4178.97,4089.23,3580.51,4437.44,4449.74,4734.36,4504.1,4519.49,4336.41,4292.31,3971.28,1638,1719,3.839,0,0,0,0,1,0,
110,4487.69,4026.15,4365.13,4180.51,4085.13,3585.64,4436.92,4456.92,4744.62,4515.38,4521.54,4336.92,4301.54,3978.46,1638,1719,3.847,0,0,0,0,1,0,
111,4493.33,4033.85,4367.69,4187.69,4091.28,3589.74,4439.49,4456.92,4749.74,4526.67,4522.05,4344.62,4311.79,3987.18,1639,1719,3.855,0,0,0,0,1,0,
112,4491.79,4035.38,4369.23,4187.18,4095.9,3581.03,4431.79,4448.72,4750.77,4526.67,4524.62,4350.77,4313.33,3992.31,1640,1720,3.863,0,0,0,0,1,0,
113,4492.82,4038.46,4371.28,4189.23,4091.79,3578.46,4425.13,4443.59,4748.21,4524.1,4527.69,4351.79,4313.33,3990.77,1641,1718,3.871,0,0,0,0,1,0,
114,4496.41,4045.13,4373.33,4197.95,4090.26,3586.15,4432.31,4445.13,4738.46,4520.51,4536.41,4354.36,4319.49,3990.77,1641,1718,3.878,0,0,0,0,1,0,
115,4495.9,4042.56,4374.36,4195.9,4090.26,3588.21,4439.49,4445.64,4733.33,4514.36,4540,4358.46,4318.97,3998.46,1642,1719,3.886,0,0,0,0,1,0,
116,4493.33,4035.38,4373.33,4184.1,4089.74,3585.13,4436.41,4444.62,4735.9,4508.72,4530.26,4354.87,4313.85,3999.49,1643,1720,3.894,0,0,0,0,1,0,
117,4491.79,4036.41,4371.79,4183.08,4090.77,3584.62,4431.28,4443.08,4733.85,4509.23,4523.59,4349.74,4313.33,3991.28,1644,1721,3.902,0,0,0,0,1,0,
118,4490.77,4043.08,4374.36,4188.72,4088.21,3584.62,4428.21,4441.54,4730.77,4507.18,4525.13,4352.31,4310.77,3991.28,1644,1721,3.91,0,0,0,0,1,0,
119,4491.79,4044.62,4375.9,4186.67,4088.21,3584.62,4429.23,4442.56,4734.36,4504.62,4525.64,4355.9,4312.31,3998.97,1644,1718,3.917,0,0,0,0,1,0,
120,4495.9,4044.1,4370.77,4185.13,4091.79,3587.69,4429.74,4443.08,4736.41,4512.31,4524.62,4353.85,4318.46,3997.95,1645,1717,3.925,0,0,0,0,1,0,
121,4496.41,4044.62,4365.13,4185.13,4093.85,3588.72,4428.72,4443.59,4735.9,4516.41,4522.05,4348.21,4315.9,3990.26,1645,1715,3.933,0,0,0,0,1,0,
122,4491.28,4044.62,4364.1,4184.62,4093.33,3583.08,4426.15,4441.54,4733.85,4513.33,4523.59,4347.18,4309.74,3986.67,1645,1714,3.941,0,0,0,0,1,0,
123,4488.72,4044.1,4366.15,4187.69,4091.28,3578.46,4426.15,4443.08,4737.44,4515.9,4532.31,4349.74,4314.87,3986.67,1645,1711,3.949,0,0,0,0,1,0,
124,4493.85,4045.13,4364.1,4189.74,4093.33,3586.67,4429.74,4450.77,4749.74,4524.62,4539.49,4351.79,4324.62,3992.82,1645,1711,3.957,0,0,0,0,1,0,
125,4495.38,4044.62,4358.46,4185.64,4095.9,3589.23,4430.26,4451.28,4748.21,4524.1,4533.33,4347.18,4323.59,3997.44,1647,1708,3.964,0,0,0,0,1,0,
126,4490.77,4043.59,4354.87,4181.54,4093.33,3580.51,4427.18,4442.05,4731.28,4511.79,4524.1,4343.08,4313.85,3992.82,1646,1706,3.972,0,0,0,0,1,0,
127,4487.69,4046.15,4359.49,4183.59,4086.15,3581.54,4425.64,4440,4729.23,4505.64,4524.1,4345.64,4310.77,3988.72,1647,1703,3.98,0,0,0,0,1,0,
128,4490.77,4051.79,4364.1,4187.69,4088.72,3588.21,4425.64,4445.64,4740.51,4513.85,4524.62,4348.72,4317.44,3988.21,1646,1702,3.988,0,0,0,0,1,0,
0,4491.79,4056.92,4364.62,4190.26,4101.03,3587.18,4426.15,4445.13,4738.97,4525.64,4526.67,4348.72,4323.59,3989.23,1648,1701,3.996,0,0,0,0,1,0,
1,4489.74,4059.49,4366.15,4189.74,4102.56,3585.13,4427.18,4446.15,4734.36,4525.64,4535.38,4349.23,4326.15,3992.31,1648,1698,4.004,0,0,0,0,1,0,
2,4496.41,4060,4368.72,4190.77,4098.46,3588.21,4429.23,4455.38,4742.56,4523.08,4540,4354.87,4332.31,4000.51,1649,1698,4.011,0,0,0,0,1,0,
3,4506.15,4062.05,4370.77,4197.95,4103.08,3589.23,4430.26,4461.03,4752.31,4531.28,4540.51,4361.03,4338.97,4008.72,1651,1695,4.019,0,0,0,0,1,0,
4,4505.64,4065.64,4373.85,4201.03,4108.72,3589.23,4428.72,4460.51,4753.85,4538.46,4545.13,4363.59,4343.08,4015.9,1652,1694,4.027,0,0,0,0,1,0,
5,4505.64,4065.13,4375.38,4197.95,4106.15,3589.74,4428.72,4459.49,4752.31,4536.92,4546.67,4365.64,4345.13,4020,1653,1692,4.035,0,0,0,0,1,0,
6,4510.77,4064.62,4373.33,4198.97,4101.03,3587.18,4426.67,4454.36,4749.23,4530.26,4539.49,4366.15,4338.97,4015.38,1653,1691,4.043,0,0,0,0,1,0,
7,4500.51,4060.51,4369.74,4194.36,4094.36,3586.15,4421.54,4444.1,4740.51,4517.95,4534.87,4361.03,4328.21,4003.59,1655,1689,4.05,0,0,0,0,1,0,
8,4488.72,4050.77,4369.74,4184.1,4092.82,3584.62,4422.05,4442.05,4733.33,4510.26,4535.38,4354.36,4323.08,3997.95,1654,1689,4.058,0,0,0,0,1,0,
9,4501.54,4053.33,4372.82,4189.23,4104.62,3581.03,4425.13,4449.23,4734.36,4518.97,4535.38,4357.44,4326.15,4003.08,1657,1688,4.066,0,0,0,0,1,0,
10,4507.18,4063.59,4374.87,4194.87,4106.67,3580.51,4420.51,4449.74,4737.95,4527.18,4532.31,4362.56,4328.72,4005.13,1658,1687,4.074,0,0,0,0,1,0,
11,4493.85,4061.54,4375.9,4189.23,4103.59,3586.67,4420,4447.18,4736.41,4520.51,4531.28,4361.03,4327.18,3999.49,1659,1687,4.082,0,0,0,0,1,0,
12,4493.33,4051.28,4372.31,4185.64,4107.69,3589.23,4428.21,4453.85,4734.87,4517.44,4529.74,4353.33,4321.03,3994.87,1661,1686,4.09,0,0,0,0,1,0,
13,4497.95,4049.74,4366.15,4187.18,4107.69,3585.64,4431.28,4460,4741.03,4523.08,4528.72,4348.21,4316.41,3989.23,1662,1687,4.097,0,0,0,0,1,0,
14,4490.26,4056.41,4367.18,4191.79,4103.59,3586.15,4427.69,4458.46,4747.18,4524.62,4534.36,4352.82,4321.54,3990.26,1664,1686,4.105,0,0,0,0,1,0,
15,4488.72,4061.54,4371.28,4195.9,4105.13,3589.74,4430.77,4460,4744.62,4523.59,4538.97,4358.97,4329.74,4002.56,1665,1689,4.113,0,0,0,0,1,0,
16,4493.85,4054.36,4367.18,4189.23,4101.54,3581.54,4429.74,4457.95,4738.46,4526.67,4536.92,4355.38,4326.67,4004.62,1666,1688,4.121,0,0,0,0,1,0,
17,4489.23,4046.67,4362.56,4182.05,4089.23,3571.79,4420,4446.67,4735.9,4522.05,4532.82,4346.15,4317.95,3992.82,1668,1689,4.129,0,0,0,0,1,0,
18,4486.67,4047.69,4364.62,4186.15,4091.28,3578.97,4418.46,4440.51,4734.36,4508.72,4528.72,4343.08,4315.38,3990.26,1669,1689,4.136,0,0,0,0,1,0,
19,4489.23,4049.74,4363.59,4186.67,4104.62,3588.21,4426.15,4442.56,4731.28,4503.08,4524.1,4345.64,4314.36,3991.28,1669,1690,4.144,0,0,0,0,1,0,
20,4487.69,4047.69,4361.03,4184.1,4107.69,3586.15,4427.18,4442.05,4730.26,4506.67,4523.08,4347.18,4309.74,3985.64,1671,1689,4.152,0,0,0,0,1,0,
21,4488.21,4053.33,4367.18,4187.18,4105.13,3584.62,4424.1,4443.59,4731.79,4508.72,4526.67,4350.26,4309.23,3986.15,1670,1689,4.16,0,0,0,0,1,0,
22,4493.33,4060.51,4373.85,4189.23,4107.69,3587.69,4426.15,4448.72,4734.36,4516.41,4533.85,4356.41,4315.38,3996.41,1672,1689,4.168,0,0,0,0,1,0,
23,4494.87,4056.41,4373.33,4188.72,4110.26,3586.67,4427.18,4446.15,4737.44,4524.1,4540.51,4358.97,4320,4006.15,1672,1687,4.176,0,0,0,0,1,0,
24,4494.36,4051.79,4371.79,4188.21,4110.26,3585.13,4426.67,4447.69,4743.59,4522.05,4540.51,4357.44,4322.56,4006.15,1671,1689,4.183,0,0,0,0,1,0,
25,4496.92,4051.79,4373.85,4185.13,4109.23,3589.74,4427.69,4459.49,4750.26,4530.77,4540.51,4361.54,4326.67,4002.05,1672,1689,4.191,0,0,0,0,1,0,
26,4495.38,4049.23,4373.85,4182.56,4105.64,3588.21,4428.72,4462.05,4750.26,4539.49,4543.08,4367.69,4327.18,4003.59,1671,1689,4.199,0,0,0,0,1,0,
27,4489.23,4043.59,4371.79,4184.1,4103.08,3581.54,4428.21,4456.92,4747.69,4526.67,4541.03,4364.1,4324.1,4002.05,1671,1690,4.207,0,0,0,0,1,0,
28,4488.21,4039.49,4370.77,4184.1,4104.1,3582.56,4429.23,4458.97,4747.18,4520.51,4538.46,4358.46,4322.05,3998.46,1669,1691,4.215,0,0,0,0,1,0,
29,4487.18,4034.36,4368.72,4174.87,4097.44,3590.26,4431.79,4456.41,4745.13,4525.13,4538.97,4357.95,4319.49,3999.49,1670,1692,4.222,0,0,0,0,1,0,
30,4477.95,4032.31,4365.64,4167.69,4092.31,3588.21,4430.77,4441.54,4734.87,4513.33,4533.85,4357.95,4311.79,3996.92,1669,1691,4.23,0,0,0,0,1,0,
31,4473.33,4037.44,4366.15,4176.92,4102.05,3576.92,4427.18,4437.44,4730.26,4503.08,4525.13,4357.95,4308.72,3991.79,1669,1691,4.238,0,0,0,0,1,0,
32,4476.41,4036.92,4367.18,4181.03,4106.15,3572.31,4421.54,4441.03,4730.77,4508.21,4523.59,4356.41,4310.26,3989.23,1667,1690,4.246,0,0,0,0,1,0,
33,4473.85,4035.38,4363.08,4172.31,4096.41,3573.85,4415.38,4434.87,4726.67,4506.15,4524.62,4348.21,4302.56,3984.62,1667,1691,4.254,0,0,0,0,1,0,
34,4471.79,4041.54,4356.41,4175.38,4097.95,3573.85,4416.41,4429.74,4728.21,4507.18,4522.05,4341.54,4298.97,3984.1,1666,1689,4.262,0,0,0,0,1,0,
35,4477.44,4045.13,4356.41,4183.08,4111.28,3577.44,4425.13,4440,4734.87,4522.05,4523.59,4343.08,4310.77,3993.33,1664,1691,4.269,0,0,0,0,1,0,
36,4478.46,4044.1,4358.97,4176.41,4112.31,3584.62,4428.72,4445.64,4732.31,4522.56,4524.1,4345.13,4312.82,3989.23,1665,1689,4.277,0,0,0,0,1,0,
37,4475.38,4043.59,4356.41,4174.36,4109.74,3587.69,4427.18,4437.95,4723.08,4510.26,4522.05,4341.03,4304.1,3977.44,1664,1689,4.285,0,0,0,0,1,0,
38,4476.92,4045.13,4357.44,4184.1,4113.33,3587.18,4428.21,4433.33,4721.03,4510.26,4523.08,4339.49,4305.13,3984.62,1663,1688,4.293,0,0,0,0,1,0,
39,4481.54,4048.72,4362.56,4184.62,4111.79,3588.21,4429.23,4433.85,4719.49,4512.31,4528.21,4343.59,4311.79,3994.36,1664,1687,4.301,0,0,0,0,1,0,
40,4479.49,4053.33,4366.67,4180.51,4112.82,3587.69,4427.18,4428.72,4718.97,4506.67,4533.33,4348.72,4315.38,3989.74,1664,1688,4.308,0,0,0,0,1,0,
41,4473.85,4052.82,4370.77,4182.05,4118.97,3586.67,4424.62,4424.62,4728.72,4509.74,4535.9,4352.82,4322.05,3989.23,1664,1688,4.316,0,0,0,0,1,0,
42,4483.59,4053.33,4372.82,4184.1,4120.51,3586.15,4424.62,4435.38,4735.38,4519.49,4537.95,4357.44,4327.18,3999.49,1664,1689,4.324,0,0,0,0,1,0,
43,4493.85,4053.33,4371.28,4185.13,4118.97,3584.62,4426.15,4445.13,4734.87,4522.56,4540,4359.49,4326.67,4001.54,1664,1690,4.332,0,0,0,0,1,0,
44,4482.56,4046.67,4368.21,4180.51,4117.95,3584.62,4425.64,4442.05,4737.95,4520.51,4539.49,4354.36,4324.1,3990.77,1664,1692,4.34,0,0,0,0,1,0,
45,4477.44,4046.15,4366.15,4176.41,4118.97,3588.21,4429.23,4446.67,4746.67,4523.59,4537.44,4352.31,4324.62,3989.23,1664,1692,4.348,0,0,0,0,1,0,
46,4490.26,4052.82,4365.64,4181.03,4123.08,3589.74,4438.46,4458.97,4751.28,4527.18,4541.54,4356.41,4329.23,3996.92,1664,1692,4.355,0,0,0,0,1,0,
47,4491.79,4052.31,4368.72,4184.1,4126.15,3589.23,4442.56,4459.49,4745.13,4523.59,4540,4355.38,4326.67,3994.87,1664,1693,4.363,0,0,0,0,1,0,
48,4487.69,4050.26,4372.82,4184.62,4130.77,3597.95,4442.56,4454.87,4736.92,4520.51,4526.15,4353.33,4318.97,3987.18,1664,1693,4.371,0,0,0,0,1,0,
49,4486.67,4052.31,4375.38,4186.67,4134.87,3606.67,4444.1,4457.44,4737.95,4517.44,4522.56,4356.41,4318.97,3988.21,1663,1692,4.379,0,0,0,0,1,0,
50,4475.38,4047.69,4372.31,4185.64,4129.23,3595.38,4444.1,4454.87,4746.15,4512.82,4528.21,4353.85,4324.1,3989.74,1663,1693,4.387,0,0,0,0,1,0,
51,4475.38,4047.69,4368.21,4182.56,4119.49,3586.67,4441.03,4452.31,4747.69,4516.92,4528.21,4348.72,4324.62,3986.67,1663,1691,4.395,0,0,0,0,1,0,
52,4493.33,4057.44,4373.33,4184.62,4121.03,3600,4442.05,4456.92,4746.67,4526.67,4531.28,4355.9,4327.18,3989.23,1663,1692,4.402,0,0,0,0,1,0,
53,4494.87,4056.92,4381.03,4186.15,4128.72,3607.69,4443.59,4461.54,4751.79,4527.18,4539.49,4365.64,4338.97,3994.87,1664,1690,4.41,0,0,0,0,1,0,
54,4486.67,4052.31,4382.56,4185.13,4131.28,3598.97,4441.54,4461.54,4752.82,4525.64,4542.05,4367.18,4350.26,4000.51,1663,1692,4.418,0,0,0,0,1,0,
55,4491.79,4060.51,4383.08,4186.67,4128.72,3593.33,4442.05,4459.49,4750.77,4535.38,4548.72,4367.18,4352.31,4009.23,1663,1692,4.426,0,0,0,0,1,0,
56,4493.33,4063.08,4381.03,4185.64,4124.62,3592.31,4442.56,4461.03,4751.79,4540,4557.44,4368.21,4352.31,4013.85,1663,1692,4.434,0,0,0,0,1,0,
57,4481.54,4052.31,4374.36,4181.54,4122.05,3589.23,4437.95,4462.56,4747.18,4529.74,4547.69,4365.64,4351.79,4006.15,1663,1691,4.441,0,0,0,0,1,0,
58,4474.36,4049.74,4371.79,4181.54,4121.03,3587.69,4431.79,4454.36,4736.41,4520.51,4534.87,4361.54,4345.13,3992.82,1663,1689,4.449,0,0,0,0,1,0,
59,4474.87,4052.31,4373.33,4183.08,4121.54,3588.72,4433.33,4443.08,4733.33,4524.62,4537.95,4355.38,4340,3988.21,1664,1690,4.457,0,0,0,0,1,0,
60,4473.85,4046.67,4367.69,4176.92,4121.54,3589.74,4434.87,4441.54,4734.87,4524.62,4536.41,4347.69,4335.38,3987.69,1664,1690,4.465,0,0,0,0,1,0,
61,4473.33,4043.08,4362.05,4168.21,4123.08,3589.23,4431.79,4442.05,4731.28,4509.23,4526.15,4346.67,4329.74,3982.56,1663,1691,4.473,0,0,0,0,1,0,
62,4474.87,4047.69,4367.69,4173.85,4130.77,3591.28,4432.82,4441.03,4731.79,4504.1,4527.18,4350.26,4331.79,3984.1,1664,1689,4.481,0,0,0,0,1,0,
63,4474.87,4050.77,4374.36,4183.59,4131.28,3593.33,4435.38,4443.08,4735.9,4510.26,4533.85,4350.26,4335.38,3990.26,1663,1690,4.488,0,0,0,0,1,0,
64,4474.87,4049.23,4372.82,4181.03,4123.59,3589.74,4431.79,4443.08,4733.33,4513.85,4534.36,4352.82,4334.36,3988.72,1664,1688,4.496,0,0,0,0,1,0,
65,4475.9,4050.26,4372.82,4179.49,4123.59,3588.72,4432.82,4445.64,4733.33,4518.97,4535.38,4361.54,4333.85,3986.15,1663,1690,4.504,0,0,0,0,1,0,
66,4475.9,4047.69,4374.87,4181.54,4127.69,3591.79,4439.49,4455.38,4738.97,4523.59,4537.44,4361.03,4331.79,3991.28,1663,1690,4.512,0,0,0,0,1,0,
67,4474.36,4042.56,4369.74,4175.9,4124.1,3591.79,4443.08,4460.51,4742.05,4524.62,4536.92,4351.79,4327.18,3989.23,1662,1692,4.52,0,0,0,0,1,0,
68,4474.87,4045.13,4364.62,4172.82,4118.97,3591.28,4442.05,4454.87,4742.56,4521.03,4533.85,4349.23,4326.15,3981.03,1662,1693,4.527,0,0,0,0,1,0,
69,4475.9,4048.21,4367.18,4176.92,4124.1,3591.28,4438.97,4448.21,4741.54,4514.36,4527.69,4351.79,4325.64,3982.05,1662,1692,4.535,0,0,0,0,1,0,
70,4472.82,4044.1,4366.67,4171.28,4133.33,3588.21,4436.92,4446.15,4736.92,4507.18,4522.05,4349.23,4323.59,3988.21,1660,1693,4.543,0,0,0,0,1,0,
71,4469.74,4042.56,4366.67,4169.23,4135.9,3587.69,4440.51,4443.59,4733.85,4507.18,4524.62,4346.67,4325.13,3986.67,1660,1692,4.555,0,0,0,0,1,0,
72,4472.31,4047.69,4372.82,4183.08,4135.9,3593.85,4444.1,4443.08,4734.87,4511.79,4528.21,4350.77,4327.18,3982.56,1658,1693,4.559,0,0,0,0,1,0,
73,4474.36,4048.21,4368.21,4184.1,4138.46,3593.85,4438.46,4443.08,4733.33,4504.1,4526.15,4350.77,4326.67,3981.03,1657,1692,4.567,0,0,0,0,1,0,
74,4469.23,4043.59,4359.49,4169.74,4141.03,3587.69,4431.79,4440,4728.72,4494.87,4525.13,4341.54,4324.62,3981.03,1656,1694,4.574,0,0,0,0,1,0,
75,4462.56,4041.54,4363.08,4171.28,4148.72,3587.69,4429.74,4440,4731.28,4506.67,4529.74,4341.03,4327.69,3984.1,1657,1693,4.582,0,0,0,0,1,0,
76,4464.62,4045.13,4368.72,4183.08,4166.15,3586.15,4429.23,4444.1,4736.41,4526.15,4536.41,4351.28,4333.85,3990.26,1655,1693,4.591,0,0,0,0,1,0,
77,4473.33,4045.13,4364.1,4178.46,4169.23,3576.92,4428.72,4445.13,4734.87,4520.51,4537.95,4350.77,4331.28,3990.26,1656,1693,4.598,0,0,0,0,1,0,
78,4471.79,4037.95,4362.05,4168.21,4156.92,3576.41,4428.21,4444.1,4733.33,4509.74,4532.31,4344.62,4327.18,3986.67,1655,1693,4.606,0,0,0,0,1,0,
79,4460.51,4034.36,4365.64,4170.77,4156.41,3588.72,4432.31,4445.64,4736.41,4520,4530.77,4348.21,4327.69,3987.69,1656,1693,4.613,0,0,0,0,1,0,
80,4455.38,4032.82,4363.08,4170.77,4166.15,3587.18,4434.36,4444.62,4734.36,4523.08,4535.38,4349.23,4325.13,3987.18,1655,1693,4.621,0,0,0,0,1,0,
81,4458.46,4032.82,4363.59,4168.72,4169.23,3574.87,4430.77,4443.59,4732.31,4510.26,4536.92,4348.21,4324.1,3984.1,1655,1693,4.629,0,0,0,0,1,0,
82,4461.54,4038.97,4369.74,4176.92,4165.13,3578.97,4429.74,4443.59,4732.82,4506.67,4536.41,4351.28,4325.64,3986.67,1656,1691,4.637,0,0,0,0,1,0,
83,4464.1,4042.56,4368.72,4183.59,4169.23,3588.72,4429.23,4438.97,4728.72,4512.82,4534.36,4350.26,4324.62,3990.26,1655,1691,4.645,0,0,0,0,1,0,
84,4470.77,4048.21,4367.69,4183.59,4186.67,3586.67,4430.26,4438.97,4734.87,4524.1,4537.44,4354.87,4331.28,3991.28,1656,1690,4.653,0,0,0,0,1,0,
85,4483.59,4058.46,4375.9,4187.18,4202.56,3584.1,4433.85,4450.26,4750.26,4535.9,4550.26,4365.13,4345.13,4000.51,1655,1690,4.66,0,0,0,0,1,0,
86,4488.21,4058.46,4377.95,4190.77,4203.59,3588.21,4435.38,4451.79,4748.72,4533.33,4556.41,4364.1,4346.15,4006.67,1655,1689,4.668,0,0,0,0,1,0,
87,4476.41,4049.74,4371.28,4187.69,4198.46,3589.23,4437.44,4446.15,4741.54,4522.56,4544.62,4356.41,4334.87,3999.49,1654,1689,4.676,0,0,0,0,1,0,
88,4469.23,4049.23,4371.28,4185.64,4201.03,3589.74,4442.56,4449.23,4744.62,4521.03,4536.41,4353.85,4330.26,3992.82,1655,1689,4.684,0,0,0,0,1,0,
89,4475.9,4053.33,4372.82,4185.64,4202.56,3590.26,4444.62,4451.28,4741.03,4520,4540.51,4350.77,4330.77,3995.38,1653,1688,4.692,0,0,0,0,1,0,
90,4477.95,4052.82,4371.28,4184.1,4202.05,3586.67,4442.05,4446.15,4733.85,4520.51,4540.51,4351.79,4327.69,3996.92,1653,1690,4.699,0,0,0,0,1,0,
91,4476.41,4050.26,4372.82,4184.62,4209.74,3585.13,4436.92,4444.1,4734.87,4524.1,4533.33,4356.41,4326.15,3997.44,1653,1688,4.707,0,0,0,0,1,0,
92,4476.41,4049.74,4373.85,4185.13,4218.97,3587.69,4434.36,4449.23,4735.38,4520,4535.9,4355.9,4328.21,3995.38,1652,1689,4.715,0,0,0,0,1,0,
93,4476.92,4056.41,4376.92,4184.1,4226.67,3589.23,4440.51,4454.87,4738.97,4521.03,4551.28,4358.97,4335.9,4000,1652,1688,4.723,0,0,0,0,1,0,
94,4486.15,4063.08,4381.54,4185.64,4233.85,3591.28,4446.15,4462.05,4751.28,4539.49,4559.49,4366.15,4346.67,4012.82,1651,1690,4.731,0,0,0,0,1,0,
95,4491.28,4062.05,4382.56,4188.21,4234.36,3592.31,4442.56,4464.1,4753.85,4545.13,4554.87,4368.21,4348.21,4011.79,1651,1689,4.739,0,0,0,0,1,0,
96,4483.59,4058.97,4381.54,4186.67,4232.31,3589.23,4442.05,4452.82,4742.56,4532.31,4553.33,4363.59,4341.54,4002.05,1651,1688,4.746,0,0,0,0,1,0,
97,4479.49,4055.9,4376.41,4184.1,4235.38,3587.69,4446.15,4442.56,4734.87,4523.08,4552.31,4357.95,4340.51,4002.05,1652,1688,4.754,0,0,0,0,1,0,
98,4478.97,4050.26,4366.15,4181.54,4234.87,3587.69,4438.97,4440,4734.36,4520.51,4540.51,4356.41,4338.46,3997.95,1651,1688,4.762,0,0,0,0,1,0,
99,4475.38,4048.21,4366.15,4181.03,4234.87,3586.15,4429.23,4441.03,4737.44,4520.51,4535.9,4356.41,4331.28,3991.28,1652,1688,4.77,0,0,0,0,1,0,
100,4475.38,4054.87,4377.95,4189.23,4249.23,3586.15,4433.85,4443.59,4745.13,4524.1,4547.69,4358.97,4335.9,3998.46,1652,1690,4.778,0,0,0,0,1,0,
101,4477.44,4061.54,4381.54,4193.33,4262.56,3589.23,4440.51,4451.28,4749.74,4526.15,4549.74,4365.13,4341.03,4003.08,1652,1689,4.785,0,0,0,0,1,0,
102,4477.44,4061.03,4378.97,4187.18,4263.08,3589.74,4439.49,4457.95,4748.72,4525.13,4547.69,4367.18,4337.44,4001.03,1651,1689,4.793,0,0,0,0,1,0,
103,4481.54,4061.03,4381.54,4185.13,4260.51,3590.26,4441.03,4461.03,4749.74,4525.13,4553.85,4366.67,4335.9,4006.15,1652,1689,4.801,0,0,0,0,1,0,
104,4480.51,4057.95,4381.03,4187.69,4263.08,3591.28,4445.64,4457.95,4745.64,4526.15,4548.72,4367.18,4332.82,4002.56,1651,1689,4.809,0,0,0,0,1,0,
105,4478.46,4055.38,4376.92,4191.28,4264.62,3588.72,4444.1,4446.67,4736.92,4521.03,4537.95,4362.56,4328.21,3992.31,1652,1689,4.817,0,0,0,0,1,0,
106,4488.72,4058.97,4379.49,4194.87,4265.13,3588.72,4443.08,4446.15,4741.03,4521.03,4548.72,4362.56,4335.9,4003.08,1651,1690,4.825,0,0,0,0,1,0,
107,4490.77,4057.95,4382.05,4191.28,4270.77,3591.79,4445.13,4457.95,4751.79,4530.26,4561.03,4369.23,4344.1,4013.85,1652,1691,4.832,0,0,0,0,1,0,
108,4477.95,4050.26,4377.44,4184.1,4272.31,3590.26,4444.1,4457.44,4748.21,4534.36,4547.18,4364.1,4335.38,3998.97,1651,1691,4.84,0,0,0,0,1,0,
109,4470.77,4049.74,4370.77,4183.59,4265.64,3584.62,4441.54,4449.74,4738.46,4524.1,4534.87,4350.77,4326.67,3986.67,1652,1692,4.848,0,0,0,0,1,0,
110,4470.77,4047.18,4366.67,4181.54,4268.21,3583.08,4439.49,4447.18,4733.33,4508.21,4536.92,4348.72,4324.62,3989.74,1652,1690,4.856,0,0,0,0,1,0,
111,4473.33,4043.59,4367.69,4183.08,4284.62,3586.15,4440,4442.56,4732.31,4509.74,4535.38,4353.33,4323.08,3990.77,1651,1692,4.864,0,0,0,0,1,0,
112,4481.54,4050.77,4371.79,4187.18,4295.9,3590.26,4442.56,4447.69,4738.46,4527.69,4536.92,4357.95,4329.74,3989.74,1653,1692,4.872,0,0,0,0,1,0,
113,4482.05,4057.95,4375.9,4184.62,4295.38,3590.77,4444.1,4455.9,4739.49,4530.77,4545.13,4363.59,4332.31,3990.77,1653,1692,4.879,0,0,0,0,1,0,
114,4475.9,4058.97,4381.03,4188.72,4297.95,3588.72,4446.67,4450.77,4735.9,4521.03,4545.64,4367.69,4329.23,3995.38,1654,1692,4.887,0,0,0,0,1,0,
115,4476.92,4058.97,4383.08,4196.92,4299.49,3596.92,4452.82,4450.77,4744.1,4520,4540,4366.15,4329.74,4003.08,1653,1691,4.895,0,0,0,0,1,0,
116,4477.44,4054.36,4382.05,4192.31,4297.95,3607.18,4459.49,4461.54,4747.69,4522.56,4538.97,4360,4329.23,4001.03,1654,1691,4.903,0,0,0,0,1,0,
117,4480.51,4049.74,4381.54,4183.59,4303.08,3600.51,4460.51,4461.54,4739.49,4520.51,4539.49,4358.97,4327.18,3993.33,1654,1691,4.911,0,0,0,0,1,0,
118,4489.23,4049.74,4381.54,4185.64,4311.28,3588.72,4453.85,4456.41,4740.51,4522.56,4545.64,4368.21,4331.79,3998.97,1655,1691,4.918,0,0,0,0,1,0,
119,4490.77,4052.82,4385.13,4189.23,4311.28,3588.21,4449.23,4460.51,4749.74,4523.59,4553.33,4373.85,4337.95,4005.13,1654,1690,4.926,0,0,0,0,1,0,
120,4487.69,4056.92,4389.74,4187.18,4311.79,3594.36,4454.87,4462.56,4749.23,4529.74,4554.87,4371.79,4340.51,3999.49,1655,1692,4.934,0,0,0,0,1,0,
121,4492.82,4060,4386.15,4187.69,4317.44,3598.97,4459.49,4460.51,4745.13,4537.44,4552.82,4373.33,4342.05,4001.03,1655,1690,4.942,0,0,0,0,1,0,
122,4491.79,4058.46,4380,4188.72,4314.87,3596.41,4451.28,4460,4747.18,4529.74,4546.67,4370.77,4336.92,4006.15,1654,1692,4.95,0,0,0,0,1,0,
123,4478.46,4054.36,4378.46,4185.64,4311.79,3588.72,4443.59,4459.49,4748.21,4518.46,4538.46,4360,4327.69,3996.41,1655,1690,4.958,0,0,0,0,1,0,
124,4473.33,4052.82,4382.05,4185.64,4320,3589.74,4446.15,4461.03,4744.1,4522.05,4539.49,4356.41,4327.69,3988.21,1654,1691,4.965,0,0,0,0,1,0,
125,4476.92,4051.28,4380.51,4186.67,4320.51,3593.33,4445.64,4455.9,4734.87,4523.59,4542.56,4359.49,4328.21,3990.26,1655,1691,4.973,0,0,0,0,1,0,
126,4474.36,4045.13,4373.85,4183.08,4314.36,3587.69,4439.49,4449.23,4730.26,4509.74,4536.41,4360,4323.59,3986.67,1654,1691,4.981,0,0,0,0,1,0,
127,4473.85,4045.64,4376.92,4182.05,4324.62,3588.21,4442.05,4453.85,4733.85,4505.13,4534.87,4364.1,4324.1,3988.72,1654,1691,4.989,0,0,0,0,1,0,
128,4480.51,4050.77,4382.56,4185.13,4336.41,3594.87,4451.79,4463.08,4734.36,4511.28,4539.49,4368.72,4327.69,3998.46,1654,1691,4.997,0,0,0,0,1,0,
0,4478.46,4048.21,4374.36,4184.62,4326.67,3592.31,4451.28,4463.59,4737.44,4515.38,4538.97,4361.54,4322.56,3992.82,1655,1691,5.004,0,0,0,0,1,0,
1,4476.41,4048.21,4370.26,4181.03,4324.1,3588.21,4443.08,4462.05,4745.64,4517.44,4535.38,4358.46,4320.51,3983.59,1654,1690,5.012,0,0,0,0,1,0,
2,4488.72,4060,4382.05,4184.1,4341.03,3588.72,4444.1,4463.59,4746.15,4524.1,4538.46,4366.15,4331.28,3993.85,1655,1692,5.02,0,0,0,0,1,0,
3,4497.44,4064.62,4387.18,4194.36,4344.62,3588.72,4446.15,4460.51,4742.56,4530.77,4546.67,4370.77,4338.46,4003.59,1655,1690,5.028,0,0,0,0,1,0,
4,4492.31,4059.49,4382.56,4196.92,4336.92,3592.82,4441.54,4458.46,4745.13,4528.21,4549.23,4372.31,4333.85,4000.51,1654,1691,5.036,0,0,0,0,1,0,
5,4486.67,4058.97,4384.62,4189.23,4343.59,3603.08,4441.03,4459.49,4748.72,4523.08,4550.77,4373.85,4333.33,4001.03,1656,1690,5.044,0,0,0,0,1,0,
6,4487.18,4060.51,4384.62,4186.67,4352.31,3603.59,4443.59,4458.46,4748.21,4527.69,4554.36,4374.36,4338.97,4004.1,1656,1690,5.051,0,0,0,0,1,0,
7,4489.23,4061.54,4382.05,4187.69,4350.26,3599.49,4443.59,4463.59,4749.74,4538.46,4554.87,4373.85,4339.49,4007.69,1657,1689,5.059,0,0,0,0,1,0,
8,4489.74,4061.54,4386.67,4189.74,4350.77,3602.56,4446.15,4474.36,4753.85,4538.46,4553.85,4373.85,4334.36,4005.64,1656,1690,5.067,0,0,0,0,1,0,
9,4489.23,4059.49,4391.28,4197.44,4352.31,3604.62,4452.31,4478.97,4754.87,4532.82,4553.85,4373.85,4332.31,3992.31,1657,1690,5.075,0,0,0,0,1,0,
10,4490.26,4061.54,4390.26,4202.56,4351.28,3603.08,4454.87,4477.95,4756.41,4537.44,4552.82,4373.33,4336.92,3991.79,1657,1690,5.083,0,0,0,0,1,0,
11,4492.82,4066.67,4391.28,4197.44,4355.38,3604.1,4451.79,4477.95,4755.9,4535.38,4550.77,4372.31,4340.51,4010.26,1657,1690,5.09,0,0,0,0,1,0,
12,4492.31,4067.69,4397.44,4196.92,4365.13,3603.08,4449.74,4476.41,4752.31,4530.26,4553.33,4376.41,4340,4016.41,1657,1690,5.098,0,0,0,0,1,0,
13,4489.74,4066.15,4397.44,4202.05,4366.67,3604.1,4447.69,4471.28,4748.21,4535.38,4555.9,4382.05,4340.51,4006.67,1657,1690,5.106,0,0,0,0,1,0,
14,4487.69,4067.18,4391.79,4201.54,4365.13,3604.1,4445.13,4471.28,4749.23,4538.97,4554.87,4378.46,4344.1,4005.13,1657,1689,5.114,0,0,0,0,1,0,
15,4489.74,4068.72,4388.21,4201.03,4371.79,3604.1,4446.15,4472.31,4751.28,4538.46,4554.87,4374.36,4342.56,4002.56,1656,1690,5.122,0,0,0,0,1,0,
16,4489.74,4065.64,4389.74,4200.51,4370.77,3603.59,4446.67,4465.64,4750.26,4536.92,4554.36,4374.87,4332.31,3991.79,1657,1689,5.13,0,0,0,0,1,0,
17,4481.54,4060,4389.23,4192.82,4361.54,3596.41,4443.59,4458.97,4748.21,4528.72,4547.69,4366.15,4325.64,3989.23,1655,1690,5.137,0,0,0,0,1,0,
18,4473.33,4056.41,4383.08,4188.72,4361.54,3589.74,4442.56,4457.95,4743.08,4521.03,4538.97,4356.92,4323.08,3990.77,1656,1690,5.145,0,0,0,0,1,0,
19,4479.49,4058.97,4384.1,4197.44,4370.26,3590.77,4443.08,4457.95,4736.92,4523.08,4536.92,4363.08,4324.1,3991.79,1656,1690,5.153,0,0,0,0,1,0,
20,4490.77,4062.05,4392.31,4203.08,4370.26,3592.82,4441.54,4457.44,4735.9,4523.08,4546.15,4367.18,4330.77,3996.41,1655,1691,5.161,0,0,0,0,1,0,
21,4490.26,4061.54,4392.82,4198.97,4365.13,3595.9,4441.03,4460,4735.9,4521.03,4552.31,4366.15,4332.82,3994.87,1656,1691,5.169,0,0,0,0,1,0,
22,4488.72,4061.03,4388.21,4200.51,4367.69,3602.05,4442.56,4459.49,4733.85,4523.59,4544.1,4366.67,4327.18,3988.21,1655,1692,5.177,0,0,0,0,1,0,
23,4487.69,4061.03,4384.62,4201.54,4372.82,3602.05,4442.05,4455.9,4733.33,4523.59,4535.9,4362.56,4324.62,3988.72,1655,1691,5.184,0,0,0,0,1,0,
24,4481.54,4062.56,4379.49,4190.77,4378.97,3602.56,4444.62,4458.46,4735.9,4522.56,4537.44,4353.85,4327.18,3991.79,1654,1691,5.192,0,0,0,0,1,0,
25,4473.85,4060,4372.82,4184.62,4382.56,3607.18,4448.72,4462.56,4741.03,4522.56,4538.97,4351.28,4326.15,3988.72,1655,1691,5.2,0,0,0,0,1,0,
26,4473.33,4051.79,4370.26,4185.13,4377.95,3604.1,4447.69,4459.49,4747.18,4518.46,4535.38,4352.31,4323.08,3985.64,1655,1690,5.208,0,0,0,0,1,0,
27,4480.51,4050.26,4372.82,4185.64,4371.28,3602.56,4444.62,4458.97,4751.28,4523.59,4541.03,4357.44,4325.64,3988.21,1654,1690,5.216,0,0,0,0,1,0,
28,4487.69,4057.95,4379.49,4186.15,4367.18,3603.08,4445.64,4466.67,4751.28,4536.92,4551.79,4364.62,4332.82,3989.23,1654,1691,5.223,0,0,0,0,1,0,
29,4489.23,4062.56,4383.08,4187.18,4366.15,3595.38,4445.64,4468.21,4751.28,4540,4555.9,4368.21,4341.54,3990.77,1654,1690,5.231,0,0,0,0,1,0,
30,4488.72,4058.97,4381.54,4188.21,4370.77,3588.72,4443.08,4463.59,4750.26,4538.46,4555.9,4369.74,4343.08,3996.41,1654,1691,5.239,0,0,0,0,1,0,
31,4488.21,4052.82,4377.95,4186.67,4372.82,3587.69,4442.05,4458.97,4741.54,4533.85,4549.23,4363.59,4332.82,3994.87,1653,1691,5.247,0,0,0,0,1,0,
32,4487.18,4051.79,4376.41,4184.62,4365.64,3587.69,4440.51,4457.44,4733.33,4520,4540.51,4354.36,4323.08,3986.67,1654,1692,5.255,0,0,0,0,1,0,
33,4488.72,4060.51,4384.62,4191.28,4369.23,3593.33,4442.56,4465.64,4742.05,4522.05,4546.15,4364.62,4330.26,3991.28,1654,1689,5.262,0,0,0,0,1,0,
34,4489.74,4065.13,4390.77,4200.51,4381.03,3596.41,4446.15,4475.38,4751.28,4537.44,4556.92,4375.38,4338.46,3999.49,1653,1690,5.27,0,0,0,0,1,0,
35,4488.72,4056.41,4383.08,4195.9,4378.46,3590.26,4447.18,4469.74,4740.51,4532.82,4547.18,4363.59,4331.28,3991.28,1655,1688,5.278,0,0,0,0,1,0,
36,4489.23,4052.31,4375.38,4185.13,4374.36,3587.18,4444.1,4459.49,4730.26,4517.95,4537.44,4356.41,4323.08,3982.56,1654,1689,5.286,0,0,0,0,1,0,
37,4488.21,4057.95,4384.1,4185.64,4380,3589.74,4444.62,4459.49,4735.9,4517.95,4541.03,4364.62,4324.1,3989.74,1655,1691,5.294,0,0,0,0,1,0,
38,4487.69,4061.03,4392.31,4194.36,4383.59,3589.23,4450.77,4461.03,4737.95,4530.26,4541.03,4370.26,4327.69,3997.44,1655,1690,5.302,0,0,0,0,1,0,
39,4490.77,4061.03,4388.72,4200.51,4382.56,3591.28,4451.28,4460,4736.41,4535.38,4542.56,4371.79,4330.77,4000,1655,1691,5.309,0,0,0,0,1,0,
40,4493.85,4064.62,4390.77,4203.08,4381.03,3592.82,4445.64,4456.92,4743.08,4530.26,4553.33,4373.85,4338.97,4005.13,1655,1690,5.317,0,0,0,0,1,0,
41,4493.33,4067.69,4395.9,4201.03,4378.97,3588.72,4441.54,4461.03,4750.77,4529.23,4555.9,4373.33,4343.08,4005.64,1656,1690,5.325,0,0,0,0,1,0,
42,4494.36,4065.64,4391.79,4197.95,4380,3593.85,4445.13,4473.33,4751.79,4535.9,4550.77,4375.9,4339.49,4002.05,1655,1690,5.333,0,0,0,0,1,0,
43,4498.97,4067.18,4391.28,4197.95,4390.77,3606.67,4450.77,4477.44,4750.77,4540.51,4553.33,4381.54,4341.54,4007.69,1655,1692,5.341,0,0,0,0,1,0,
44,4497.95,4070.26,4398.97,4201.03,4397.95,3602.56,4448.72,4473.85,4752.31,4543.08,4558.46,4381.54,4342.56,4016.41,1655,1692,5.349,0,0,0,0,1,0,
45,4491.28,4065.13,4394.36,4197.95,4391.79,3587.69,4444.1,4474.87,4752.31,4538.97,4549.23,4375.9,4332.31,4006.67,1653,1693,5.356,0,0,0,0,1,0,
46,4487.69,4056.92,4382.56,4189.23,4380,3586.15,4445.64,4475.9,4746.15,4522.56,4537.95,4368.21,4321.03,3987.69,1655,1693,5.364,0,0,0,0,1,0,
47,4487.18,4056.92,4382.05,4187.18,4374.87,3592.31,4450.26,4473.85,4740.51,4517.44,4536.41,4365.64,4321.54,3983.08,1653,1693,5.372,0,0,0,0,1,0,
48,4487.18,4060,4383.08,4186.15,4378.97,3591.28,4447.18,4469.74,4741.54,4528.21,4535.38,4363.08,4323.59,3989.23,1653,1695,5.38,0,0,0,0,1,0,
49,4488.21,4058.46,4380.51,4185.64,4384.62,3589.74,4444.1,4463.08,4741.54,4526.67,4531.79,4360,4322.56,3988.21,1653,1693,5.388,0,0,0,0,1,0,
50,4487.69,4056.41,4383.08,4185.13,4382.05,3590.26,4445.64,4458.97,4734.87,4520.51,4533.33,4362.56,4323.08,3990.77,1653,1694,5.395,0,0,0,0,1,0,
51,4489.23,4056.92,4388.72,4185.13,4378.46,3590.26,4446.15,4457.95,4734.87,4524.1,4537.44,4366.67,4326.15,4003.08,1653,1692,5.403,0,0,0,0,1,0,
52,4492.31,4060,4391.79,4190.26,4385.64,3590.26,4446.67,4457.44,4743.08,4527.18,4545.13,4368.72,4332.31,4009.23,1653,1693,5.411,0,0,0,0,1,0,
53,4492.82,4060.51,4394.36,4200,4391.79,3590.26,4449.23,4464.62,4749.23,4530.26,4553.85,4376.41,4338.46,4006.15,1653,1693,5.419,0,0,0,0,1,0,
54,4501.03,4060,4398.97,4201.03,4387.69,3590.26,4455.38,4474.87,4750.77,4536.41,4555.9,4381.03,4342.05,4008.72,1654,1694,5.427,0,0,0,0,1,0,
55,4507.18,4062.56,4395.9,4192.31,4379.49,3590.26,4457.44,4476.41,4749.23,4538.97,4553.33,4375.9,4340.51,4011.79,1654,1693,5.435,0,0,0,0,1,0,
56,4497.44,4056.41,4389.74,4185.13,4375.9,3590.26,4451.79,4474.87,4749.23,4534.36,4546.15,4371.28,4334.87,4006.67,1654,1694,5.442,0,0,0,0,1,0,
57,4489.23,4045.13,4386.67,4183.59,4377.95,3590.26,4451.79,4475.9,4747.18,4527.69,4537.95,4367.69,4330.26,4001.03,1656,1693,5.45,0,0,0,0,1,0,
58,4491.79,4045.64,4384.1,4184.62,4379.49,3589.74,4457.44,4475.38,4741.54,4521.54,4538.46,4363.59,4328.21,4004.62,1655,1692,5.458,0,0,0,0,1,0,
59,4492.31,4051.79,4382.56,4186.67,4375.9,3589.74,4458.46,4473.85,4740,4522.56,4541.54,4364.62,4326.67,4005.13,1656,1693,5.466,0,0,0,0,1,0,
60,4489.23,4049.74,4383.08,4185.13,4370.77,3591.28,4456.92,4473.85,4740,4525.64,4538.46,4366.15,4325.64,3994.87,1656,1692,5.474,0,0,0,0,1,0,
61,4487.69,4050.77,4382.56,4184.1,4372.82,3589.23,4456.92,4474.87,4737.95,4519.49,4537.95,4363.59,4324.62,3990.26,1656,1692,5.481,0,0,0,0,1,0,
62,4487.69,4057.95,4384.1,4189.74,4379.49,3589.23,4456.92,4475.9,4745.13,4523.08,4537.95,4363.08,4327.18,4000,1657,1691,5.489,0,0,0,0,1,0,
63,4498.46,4061.03,4392.82,4200.51,4382.56,3596.41,4457.95,4475.9,4750.26,4532.31,4539.49,4368.72,4332.82,4007.18,1655,1691,5.497,0,0,0,0,1,0,
64,4506.67,4059.49,4398.97,4202.56,4383.08,3597.95,4461.03,4473.85,4742.05,4529.23,4548.72,4375.38,4337.95,4006.67,1656,1690,5.505,0,0,0,0,1,0,
65,4496.41,4059.49,4395.38,4191.79,4379.49,3588.21,4453.85,4473.33,4740.51,4523.08,4553.33,4373.85,4338.97,4005.13,1655,1691,5.513,0,0,0,0,1,0,
66,4486.15,4058.46,4393.33,4187.18,4370.26,3586.67,4444.1,4472.82,4749.23,4523.59,4548.72,4369.74,4338.97,4007.69,1655,1691,5.521,0,0,0,0,1,0,
67,4497.44,4058.46,4397.44,4196.92,4371.79,3592.82,4448.72,4474.87,4749.74,4529.23,4550.26,4375.9,4341.54,4013.33,1654,1691,5.528,0,0,0,0,1,0,
68,4506.67,4063.08,4399.49,4202.56,4382.05,3590.77,4456.41,4482.05,4749.23,4538.97,4554.87,4381.54,4344.1,4012.31,1654,1690,5.536,0,0,0,0,1,0,
69,4501.54,4063.59,4398.46,4200,4372.31,3588.21,4452.31,4484.62,4753.85,4538.97,4552.82,4376.92,4344.62,4008.21,1654,1690,5.544,0,0,0,0,1,0,
70,4494.87,4058.46,4396.92,4196.92,4358.46,3589.74,4446.15,4476.92,4750.26,4525.64,4551.79,4372.31,4344.1,4012.31,1654,1692,5.552,0,0,0,0,1,0,
71,4492.82,4056.92,4395.9,4188.72,4369.23,3587.69,4451.28,4471.79,4741.03,4523.08,4552.82,4372.31,4342.05,4011.79,1656,1690,5.56,0,0,0,0,1,0,
72,4497.95,4060,4397.44,4184.62,4381.54,3587.18,4457.44,4474.87,4742.56,4535.9,4551.28,4370.26,4340,4004.1,1654,1690,5.567,0,0,0,0,1,0,
73,4507.18,4060.51,4394.36,4191.79,4375.38,3591.28,4460,4476.92,4751.79,4538.46,4552.82,4368.21,4340,4004.62,1656,1689,5.575,0,0,0,0,1,0,
74,4505.13,4058.46,4387.69,4195.38,4366.67,3591.28,4460,4471.79,4751.28,4528.21,4551.28,4365.64,4338.46,4003.08,1655,1690,5.583,0,0,0,0,1,0,
75,4494.36,4060.51,4387.69,4191.79,4367.18,3588.72,4455.38,4468.21,4742.56,4523.59,4541.03,4361.03,4334.87,3992.82,1656,1690,5.591,0,0,0,0,1,0,
76,4490.77,4061.54,4388.72,4191.28,4364.1,3588.72,4448.72,4470.26,4739.49,4524.62,4535.9,4355.9,4331.79,3991.79,1654,1690,5.599,0,0,0,0,1,0,
77,4489.23,4055.38,4383.59,4187.18,4353.33,3587.69,4445.64,4471.79,4737.44,4523.59,4539.49,4354.36,4326.15,3994.87,1655,1691,5.607,0,0,0,0,1,0,
78,4486.15,4049.23,4380.51,4183.59,4348.21,3584.1,4445.64,4473.33,4737.44,4522.56,4537.95,4357.44,4322.56,3988.21,1655,1691,5.614,0,0,0,0,1,0,
79,4488.21,4051.28,4382.05,4188.21,4353.85,3587.69,4446.15,4474.87,4740,4515.9,4537.44,4357.44,4322.56,3985.64,1655,1691,5.622,0,0,0,0,1,0,
80,4486.15,4054.36,4381.03,4189.74,4363.59,3587.69,4445.64,4468.21,4736.92,4505.64,4536.41,4353.33,4320,3988.72,1655,1691,5.63,0,0,0,0,1,0,
81,4476.92,4048.72,4379.49,4185.64,4358.46,3577.44,4444.1,4460,4733.33,4503.08,4527.18,4352.82,4316.92,3981.03,1654,1691,5.638,0,0,0,0,1,0,
82,4472.31,4044.62,4379.49,4184.1,4346.67,3575.38,4443.08,4458.97,4734.87,4511.79,4524.62,4356.41,4315.9,3975.38,1654,1692,5.646,0,0,0,0,1,0,
83,4481.03,4050.26,4382.05,4184.62,4348.72,3585.13,4444.62,4461.03,4734.87,4518.97,4532.31,4360.51,4317.95,3987.69,1655,1692,5.653,0,0,0,0,1,0,
84,4491.79,4057.95,4391.28,4191.28,4359.49,3587.69,4448.21,4468.21,4738.46,4523.08,4544.1,4365.64,4328.21,4001.03,1654,1693,5.661,0,0,0,0,1,0,
85,4494.87,4063.08,4397.44,4197.95,4360,3589.23,4451.28,4476.41,4748.72,4532.82,4552.82,4371.79,4336.92,4006.67,1654,1694,5.669,0,0,0,0,1,0,
86,4494.36,4061.03,4392.82,4190.26,4350.77,3589.23,4447.69,4475.9,4751.79,4540.51,4547.69,4370.26,4332.82,4008.21,1654,1694,5.677,0,0,0,0,1,0,
87,4493.33,4053.33,4387.69,4182.56,4347.69,3579.49,4441.03,4473.33,4745.64,4532.31,4541.54,4368.72,4326.67,4004.1,1655,1694,5.685,0,0,0,0,1,0,
88,4493.33,4053.33,4390.26,4189.74,4347.18,3576.92,4441.54,4474.87,4742.56,4520,4544.1,4373.85,4327.69,4000,1654,1694,5.693,0,0,0,0,1,0,
89,4492.31,4061.03,4392.31,4193.85,4344.1,3585.13,4443.59,4470.77,4738.97,4517.95,4544.1,4372.31,4327.18,4002.56,1656,1694,5.7,0,0,0,0,1,0,
90,4491.28,4059.49,4391.79,4185.64,4347.18,3586.67,4442.56,4467.18,4736.92,4522.05,4540,4369.23,4325.64,4000,1657,1693,5.708,0,0,0,0,1,0,
91,4490.26,4052.31,4390.77,4183.59,4352.31,3585.64,4446.15,4467.18,4742.56,4525.64,4541.54,4367.69,4327.18,3994.36,1656,1694,5.716,0,0,0,0,1,0,
92,4489.23,4049.74,4381.54,4184.1,4350.26,3589.23,4448.21,4464.1,4742.56,4522.05,4539.49,4362.05,4323.08,3992.31,1658,1693,5.724,0,0,0,0,1,0,
93,4487.69,4050.26,4373.85,4181.54,4349.23,3588.72,4445.13,4464.62,4738.46,4516.92,4533.85,4354.36,4316.92,3987.69,1656,1693,5.732,0,0,0,0,1,0,
94,4486.67,4053.33,4376.92,4182.05,4351.79,3586.67,4444.1,4472.82,4745.13,4524.1,4536.92,4355.38,4321.03,3988.72,1657,1693,5.74,0,0,0,0,1,0,
95,4486.15,4056.92,4381.03,4183.08,4344.1,3586.67,4444.1,4476.92,4752.31,4534.36,4540,4359.49,4327.69,3998.46,1656,1692,5.747,0,0,0,0,1,0,
96,4489.23,4058.97,4383.08,4182.56,4342.05,3586.67,4444.62,4476.41,4751.28,4537.44,4540.51,4364.62,4328.21,4001.03,1657,1693,5.755,0,0,0,0,1,0,
97,4491.79,4059.49,4385.13,4184.1,4349.23,3585.64,4445.13,4477.44,4750.77,4533.85,4539.49,4367.18,4327.18,3996.41,1655,1693,5.763,0,0,0,0,1,0,
98,4489.23,4053.85,4380.51,4184.62,4340.51,3586.15,4441.03,4474.36,4744.62,4525.13,4537.95,4360,4325.64,3992.82,1656,1693,5.771,0,0,0,0,1,0,
99,4487.69,4051.28,4376.92,4183.08,4331.79,3585.13,4438.97,4472.31,4735.9,4524.1,4538.97,4357.95,4324.62,3991.28,1655,1692,5.779,0,0,0,0,1,0,
100,4490.77,4058.46,4388.21,4183.59,4338.97,3576.41,4441.03,4472.82,4742.05,4530.77,4541.03,4366.15,4330.26,3996.92,1656,1692,5.786,0,0,0,0,1,0,
101,4491.28,4063.59,4398.97,4187.69,4343.59,3576.41,4440,4465.13,4745.64,4528.72,4542.05,4372.31,4338.97,4004.62,1655,1691,5.794,0,0,0,0,1,0,
102,4489.74,4060.51,4394.87,4187.69,4336.92,3582.56,4433.85,4456.41,4736.92,4523.59,4542.56,4370.77,4340,4006.15,1654,1692,5.802,0,0,0,0,1,0,
103,4493.33,4058.97,4387.18,4185.64,4334.87,3581.54,4432.31,4457.44,4732.31,4521.54,4542.56,4365.13,4331.79,4004.1,1656,1692,5.81,0,0,0,0,1,0,
104,4490.77,4055.9,4384.62,4186.15,4336.41,3579.49,4434.36,4461.03,4733.33,4514.36,4540,4362.56,4325.64,3997.44,1653,1693,5.818,0,0,0,0,1,0,
105,4476.41,4049.74,4382.05,4181.03,4327.69,3580,4434.87,4457.44,4731.79,4508.21,4535.38,4358.97,4325.13,3988.21,1655,1694,5.826,0,0,0,0,1,0,
106,4474.87,4051.79,4380,4174.36,4320,3581.54,4438.46,4459.49,4732.31,4512.31,4536.92,4358.46,4325.64,3990.77,1654,1693,5.833,0,0,0,0,1,0,
107,4488.72,4059.49,4381.03,4177.95,4326.15,3584.62,4441.54,4469.74,4734.87,4524.1,4540.51,4362.05,4326.15,3995.9,1655,1694,5.841,0,0,0,0,1,0,
108,4489.74,4058.46,4381.03,4184.1,4330.77,3587.18,4440.51,4470.77,4734.87,4524.62,4538.97,4362.56,4321.54,3989.23,1655,1692,5.849,0,0,0,0,1,0,
109,4475.38,4052.31,4380.51,4184.62,4319.49,3584.62,4437.44,4460.51,4732.82,4511.79,4535.9,4356.41,4313.33,3985.64,1656,1693,5.857,0,0,0,0,1,0,
110,4473.33,4049.23,4379.49,4183.59,4321.03,3587.18,4433.33,4458.46,4731.28,4511.79,4536.41,4354.87,4314.36,3991.79,1656,1693,5.865,0,0,0,0,1,0,
111,4483.59,4052.31,4377.44,4182.05,4336.41,3587.18,4432.82,4467.69,4734.87,4520.51,4538.46,4356.92,4324.1,3991.79,1656,1693,5.872,0,0,0,0,1,0,
112,4489.74,4057.44,4377.44,4180,4334.36,3586.67,4438.97,4473.33,4743.59,4522.05,4539.49,4357.44,4327.18,3987.18,1657,1692,5.88,0,0,0,0,1,0,
113,4488.72,4061.54,4379.49,4185.13,4325.64,3596.41,4446.15,4474.87,4751.28,4530.77,4540.51,4355.9,4327.18,3986.15,1656,1694,5.888,0,0,0,0,1,0,
114,4482.05,4061.03,4379.49,4188.21,4326.15,3598.46,4445.13,4475.9,4751.79,4540,4541.03,4352.31,4327.69,3988.21,1657,1693,5.896,0,0,0,0,1,0,
115,4478.46,4058.46,4375.38,4185.13,4329.74,3590.77,4442.56,4474.36,4750.26,4530.26,4538.97,4349.74,4323.59,3987.69,1656,1692,5.904,0,0,0,0,1,0,
116,4477.44,4058.46,4373.85,4182.05,4330.77,3589.23,4443.08,4473.33,4751.28,4521.54,4535.38,4349.74,4321.03,3983.08,1657,1692,5.912,0,0,0,0,1,0,
117,4474.36,4059.49,4373.85,4181.03,4331.28,3590.26,4442.05,4473.33,4751.28,4527.69,4534.36,4350.77,4322.05,3981.54,1656,1692,5.919,0,0,0,0,1,0,
118,4474.87,4059.49,4374.36,4185.64,4322.05,3589.23,4443.59,4476.41,4748.72,4521.03,4537.95,4352.82,4320,3986.67,1657,1692,5.927,0,0,0,0,1,0,
119,4479.49,4056.92,4373.33,4185.13,4310.26,3590.77,4443.59,4473.33,4742.05,4506.15,4534.36,4352.31,4313.85,3986.67,1656,1692,5.935,0,0,0,0,1,0,
120,4477.44,4051.28,4373.33,4171.79,4313.33,3587.18,4441.54,4464.1,4735.9,4509.23,4528.21,4349.23,4309.74,3979.49,1656,1692,5.943,0,0,0,0,1,0,
121,4474.36,4049.23,4375.9,4169.23,4320,3587.18,4443.08,4467.18,4741.03,4520,4532.31,4352.31,4311.79,3979.49,1656,1691,5.951,0,0,0,0,1,0,
122,4482.05,4054.87,4381.54,4183.08,4318.46,3601.03,4446.67,4477.44,4748.72,4524.1,4539.49,4360.51,4321.03,3992.82,1656,1692,5.958,0,0,0,0,1,0,
123,4490.77,4062.56,4386.15,4189.23,4319.49,3601.54,4446.15,4477.44,4751.28,4531.28,4545.64,4367.18,4329.74,4001.54,1656,1691,5.966,0,0,0,0,1,0,
124,4491.28,4062.05,4387.18,4184.1,4323.08,3588.72,4442.56,4474.87,4753.33,4536.92,4549.23,4369.23,4330.77,3993.33,1655,1692,5.974,0,0,0,0,1,0,
125,4484.1,4057.95,4383.59,4184.62,4314.87,3588.72,4434.87,4473.85,4751.28,4527.69,4544.1,4363.59,4326.15,3984.62,1656,1690,5.982,0,0,0,0,1,0,
126,4481.54,4058.46,4382.05,4188.21,4303.08,3593.33,4431.28,4464.62,4738.97,4516.92,4534.87,4353.85,4319.49,3987.69,1654,1691,5.99,0,0,0,0,1,0,
127,4488.72,4061.03,4382.05,4187.18,4310.26,3589.74,4436.92,4455.9,4732.31,4518.97,4536.41,4350.77,4319.49,3988.72,1656,1691,5.998,0,0,0,0,1,0,
128,4492.82,4061.03,4381.03,4190.26,4324.62,3593.33,4442.56,4463.08,4744.1,4522.56,4541.54,4354.36,4326.67,3991.28,1656,1690,6.005,0,0,0,0,1,0,
0,4491.28,4061.54,4385.13,4196.92,4328.72,3606.15,4450.26,4474.87,4752.82,4525.13,4542.05,4358.97,4328.72,3998.46,1655,1691,6.013,0,0,0,0,1,0,
1,4493.33,4063.59,4392.82,4197.95,4321.54,3606.15,4457.95,4471.79,4744.62,4523.59,4541.54,4364.1,4325.64,3996.92,1656,1691,6.021,0,0,0,0,1,0,
2,4492.31,4056.41,4389.74,4189.23,4311.28,3594.36,4450.77,4458.46,4733.85,4517.95,4539.49,4363.59,4325.13,3988.72,1655,1691,6.029,0,0,0,0,1,0,
3,4489.23,4050.77,4382.56,4183.59,4308.21,3591.28,4442.05,4456.92,4734.87,4521.03,4540.51,4358.46,4326.15,3987.18,1656,1690,6.037,0,0,0,0,1,0,
4,4490.26,4056.92,4382.56,4188.72,4310.77,3597.95,4446.67,4462.56,4737.95,4520.51,4541.54,4353.33,4326.15,3989.74,1655,1691,6.045,0,0,0,0,1,0,
5,4481.03,4055.38,4380.51,4186.67,4303.08,3593.33,4441.54,4456.92,4731.28,4513.33,4536.41,4348.21,4323.08,3982.56,1655,1692,6.052,0,0,0,0,1,0,
6,4472.31,4047.18,4377.95,4181.54,4295.38,3586.15,4428.72,4456.92,4736.41,4517.95,4538.97,4352.82,4323.08,3977.44,1654,1692,6.06,0,0,0,0,1,0,
7,4485.64,4054.36,4383.59,4187.69,4306.15,3589.23,4431.79,4471.79,4752.82,4527.18,4554.87,4367.69,4333.33,3990.77,1654,1692,6.068,0,0,0,0,1,0,
8,4496.41,4063.08,4385.64,4193.85,4310.26,3591.28,4433.85,4472.82,4747.18,4524.1,4556.92,4368.21,4336.92,4001.03,1655,1693,6.076,0,0,0,0,1,0,
9,4488.21,4059.49,4381.03,4188.21,4294.36,3585.13,4426.15,4458.46,4729.74,4517.44,4539.49,4355.38,4325.64,3990.26,1655,1692,6.084,0,0,0,0,1,0,
10,4485.64,4056.92,4382.05,4183.59,4292.82,3587.18,4429.74,4454.36,4729.74,4518.97,4534.36,4354.36,4322.05,3984.1,1655,1692,6.091,0,0,0,0,1,0,
11,4490.26,4056.92,4383.59,4186.67,4311.28,3596.92,4443.08,4467.18,4742.05,4521.03,4540.51,4359.49,4328.21,3991.28,1655,1691,6.099,0,0,0,0,1,0,
12,4481.54,4049.74,4376.92,4186.67,4314.36,3605.64,4446.67,4473.85,4748.21,4521.03,4538.46,4353.33,4321.54,3981.54,1655,1693,6.107,0,0,0,0,1,0,
13,4473.33,4046.15,4370.77,4183.08,4301.03,3604.1,4445.13,4468.21,4749.23,4521.54,4536.41,4342.56,4316.41,3968.72,1655,1692,6.115,0,0,0,0,1,0,
14,4472.82,4049.23,4374.36,4183.08,4290.26,3593.33,4444.1,4461.03,4747.18,4517.44,4537.95,4343.08,4325.13,3979.49,1654,1693,6.123,0,0,0,0,1,0,
15,4477.44,4051.28,4380.51,4185.64,4291.28,3588.72,4442.56,4460,4746.67,4521.03,4541.03,4353.85,4330.26,3992.82,1655,1692,6.131,0,0,0,0,1,0,
16,4487.69,4053.33,4383.59,4187.69,4297.95,3592.82,4442.05,4465.13,4751.79,4536.41,4550.77,4358.97,4330.77,3991.28,1654,1693,6.138,0,0,0,0,1,0,
17,4493.85,4056.92,4383.08,4186.67,4296.41,3593.85,4435.38,4465.64,4752.82,4544.1,4554.87,4355.38,4334.87,3990.26,1656,1694,6.146,0,0,0,0,1,0,
18,4491.79,4056.92,4381.03,4184.62,4289.23,3588.72,4425.64,4463.59,4749.23,4539.49,4551.79,4352.82,4337.95,3992.31,1656,1693,6.154,0,0,0,0,1,0,
19,4486.15,4054.87,4381.54,4184.62,4288.21,3588.21,4426.67,4464.1,4748.21,4534.87,4553.33,4358.46,4335.38,3989.74,1655,1694,6.162,0,0,0,0,1,0,
20,4479.49,4051.28,4381.03,4184.62,4288.21,3590.26,4431.28,4466.67,4747.69,4528.72,4551.79,4358.46,4331.28,3988.72,1656,1692,6.17,0,0,0,0,1,0,
21,4473.33,4047.18,4373.33,4184.1,4283.08,3587.69,4431.79,4463.08,4739.49,4522.05,4534.36,4346.15,4324.62,3984.62,1656,1692,6.177,0,0,0,0,1,0,
22,4473.85,4042.56,4365.64,4182.56,4281.03,3588.21,4436.41,4458.46,4732.31,4521.03,4525.13,4338.46,4317.95,3973.85,1656,1692,6.185,0,0,0,0,1,0,
23,4480,4040,4364.1,4181.54,4280,3593.33,4444.1,4458.97,4732.82,4520,4533.33,4340.51,4316.92,3969.74,1656,1694,6.193,0,0,0,0,1,0,
24,4487.18,4042.56,4369.74,4184.1,4280,3589.74,4443.59,4459.49,4734.87,4517.95,4538.97,4343.08,4321.54,3977.95,1657,1692,6.201,0,0,0,0,1,0,
25,4487.69,4049.74,4375.9,4187.69,4281.03,3586.67,4441.54,4458.46,4737.44,4522.05,4538.46,4347.18,4326.15,3983.08,1656,1693,6.209,0,0,0,0,1,0,
26,4480.51,4052.31,4374.36,4189.23,4283.59,3596.92,4445.13,4459.49,4744.1,4527.18,4541.03,4351.79,4328.72,3981.54,1658,1693,6.217,0,0,0,0,1,0,
27,4482.05,4049.23,4373.85,4186.67,4280,3599.49,4442.05,4460.51,4749.23,4525.13,4543.08,4349.74,4329.74,3987.18,1656,1691,6.224,0,0,0,0,1,0,
28,4488.21,4045.64,4379.49,4183.08,4270.26,3588.72,4428.72,4460,4747.69,4524.62,4540,4348.72,4328.72,3991.79,1657,1693,6.232,0,0,0,0,1,0,
29,4489.23,4046.15,4382.05,4182.56,4270.26,3587.18,4424.62,4460,4745.64,4534.36,4545.64,4354.87,4330.77,3989.23,1656,1692,6.24,0,0,0,0,1,0,
30,4490.77,4051.79,4380,4185.13,4278.46,3592.31,4430.77,4459.49,4746.67,4538.97,4552.31,4354.36,4333.85,3988.72,1656,1693,6.248,0,0,0,0,1,0,
31,4493.33,4053.85,4380.51,4183.59,4280.51,3591.28,4434.36,4458.97,4746.15,4529.74,4546.67,4349.74,4329.23,3992.82,1656,1693,6.256,0,0,0,0,1,0,
32,4492.82,4051.79,4382.05,4189.23,4281.54,3589.74,4438.46,4458.97,4745.13,4524.62,4541.03,4353.33,4325.64,3991.28,1654,1694,6.263,0,0,0,0,1,0,
33,4491.79,4052.31,4382.56,4197.95,4279.49,3590.77,4443.59,4458.46,4744.62,4527.69,4541.03,4354.87,4327.18,3987.69,1655,1695,6.271,0,0,0,0,1,0,
34,4490.77,4050.77,4381.03,4195.9,4268.72,3589.74,4442.56,4458.97,4741.54,4525.13,4539.49,4351.28,4325.64,3988.21,1654,1694,6.279,0,0,0,0,1,0,
35,4483.59,4045.13,4378.97,4193.85,4270.77,3591.28,4441.54,4465.64,4743.59,4522.05,4535.9,4349.74,4323.59,3988.72,1654,1694,6.287,0,0,0,0,1,0,
36,4477.95,4044.62,4380,4192.82,4281.54,3592.82,4444.1,4474.36,4750.77,4522.56,4539.49,4351.28,4327.69,3990.26,1653,1694,6.295,0,0,0,0,1,0,
37,4476.92,4045.13,4381.03,4188.21,4271.28,3591.79,4442.56,4472.31,4750.77,4523.08,4542.05,4352.31,4327.69,3991.28,1655,1694,6.303,0,0,0,0,1,0,
38,4477.95,4044.62,4380,4185.13,4259.49,3590.77,4440.51,4466.15,4748.21,4525.13,4538.97,4353.85,4325.13,3988.21,1654,1693,6.31,0,0,0,0,1,0,
39,4484.1,4044.1,4379.49,4186.15,4270.77,3590.26,4442.56,4469.23,4750.26,4527.18,4540,4357.95,4327.69,3987.18,1655,1694,6.318,0,0,0,0,1,0,
40,4491.28,4044.62,4382.05,4192.31,4276.92,3589.23,4441.03,4476.92,4750.77,4526.67,4551.28,4363.08,4333.85,3998.46,1656,1693,6.326,0,0,0,0,1,0,
41,4494.36,4046.67,4384.62,4194.87,4266.67,3588.72,4436.92,4473.33,4751.28,4524.62,4556.41,4367.18,4335.9,4008.72,1655,1694,6.334,0,0,0,0,1,0,
42,4493.33,4046.67,4383.59,4191.79,4260.51,3587.69,4431.79,4461.54,4748.72,4522.56,4549.74,4364.62,4331.28,4006.67,1657,1692,6.342,0,0,0,0,1,0,
43,4495.9,4045.13,4382.05,4194.36,4261.54,3586.15,4429.23,4458.97,4743.08,4522.56,4550.26,4359.49,4327.18,4001.03,1656,1692,6.349,0,0,0,0,1,0,
44,4494.87,4047.69,4382.56,4203.08,4264.1,3586.67,4432.82,4463.08,4744.62,4525.13,4552.31,4357.95,4327.18,3995.38,1658,1691,6.357,0,0,0,0,1,0,
45,4488.21,4051.79,4382.56,4197.95,4265.64,3589.23,4439.49,4462.56,4746.67,4524.1,4548.21,4357.95,4327.18,3996.92,1658,1690,6.365,0,0,0,0,1,0,
46,4489.74,4049.74,4384.1,4195.9,4270.26,3590.26,4443.59,4460,4742.05,4522.56,4547.69,4357.95,4328.72,4004.62,1658,1690,6.373,0,0,0,0,1,0,
47,4486.67,4044.62,4381.03,4199.49,4263.08,3586.67,4440,4460,4735.9,4523.08,4545.13,4350.26,4326.67,3998.46,1658,1690,6.381,0,0,0,0,1,0,
48,4480,4043.59,4372.31,4193.33,4252.31,3584.62,4434.87,4458.97,4732.82,4520.51,4537.44,4342.56,4319.49,3987.18,1658,1690,6.389,0,0,0,0,1,0,
49,4484.1,4043.59,4372.82,4185.64,4254.87,3586.15,4432.82,4458.97,4731.28,4517.44,4537.44,4344.62,4319.49,3989.23,1658,1690,6.396,0,0,0,0,1,0,
50,4493.33,4042.56,4381.54,4185.13,4252.82,3585.13,4431.79,4458.46,4734.87,4520.51,4545.13,4352.82,4324.62,3994.36,1658,1690,6.404,0,0,0,0,1,0,
51,4494.36,4045.13,4385.13,4192.82,4249.23,3586.15,4431.79,4459.49,4742.05,4524.62,4551.28,4358.97,4327.18,4001.54,1658,1690,6.412,0,0,0,0,1,0,
52,4493.33,4049.23,4382.56,4200.51,4258.46,3586.15,4431.79,4464.62,4747.69,4524.62,4555.38,4360.51,4327.69,4006.67,1656,1692,6.42,0,0,0,0,1,0,
53,4491.79,4047.69,4381.54,4194.36,4258.46,3577.44,4429.23,4465.64,4748.72,4523.08,4550.26,4356.92,4327.69,3998.97,1657,1690,6.428,0,0,0,0,1,0,
54,4489.74,4043.59,4381.54,4186.67,4244.62,3571.28,4427.18,4462.05,4744.1,4524.1,4544.62,4353.33,4326.15,3992.31,1655,1690,6.436,0,0,0,0,1,0,
55,4489.23,4044.1,4378.46,4189.74,4245.13,3573.85,4431.28,4461.54,4740,4520.51,4546.15,4351.79,4327.18,3994.36,1656,1691,6.443,0,0,0,0,1,0,
56,4482.56,4045.64,4371.79,4189.74,4250.26,3576.92,4434.36,4461.54,4735.38,4510.77,4542.56,4345.13,4326.67,3989.74,1656,1691,6.451,0,0,0,0,1,0,
57,4473.33,4040.51,4365.64,4182.05,4237.44,3572.82,4431.28,4458.46,4732.31,4504.1,4534.87,4335.9,4317.95,3981.54,1657,1691,6.459,0,0,0,0,1,0,
58,4472.31,4033.85,4364.1,4180,4231.28,3575.38,4428.72,4456.41,4733.85,4505.64,4532.31,4331.79,4312.31,3980,1657,1690,6.466,0,0,0,0,1,0,
59,4473.33,4033.85,4364.1,4185.13,4238.46,3583.59,4430.77,4457.95,4736.92,4514.87,4533.85,4334.87,4318.46,3982.05,1657,1690,6.475,0,0,0,0,1,0,
60,4476.41,4040,4367.69,4188.21,4246.67,3583.08,4431.79,4459.49,4736.92,4523.59,4538.97,4345.13,4326.15,3988.21,1657,1690,6.482,0,0,0,0,1,0,
61,4478.97,4043.59,4372.31,4186.67,4249.23,3574.87,4428.72,4458.97,4733.33,4517.44,4544.1,4349.23,4323.08,3993.33,1657,1691,6.49,0,0,0,0,1,0,
62,4477.95,4044.62,4372.82,4185.13,4239.49,3570.77,4426.67,4458.46,4736.41,4507.18,4539.49,4344.62,4320,3990.77,1657,1692,6.498,0,0,0,0,1,0,
63,4480,4044.1,4372.31,4187.69,4234.87,3580,4428.21,4464.62,4746.15,4516.92,4540.51,4345.13,4325.13,3989.74,1658,1693,6.506,0,0,0,0,1,0,
64,4488.72,4046.15,4376.92,4189.74,4245.64,3588.72,4437.44,4475.9,4753.33,4531.79,4553.85,4353.85,4330.26,3992.82,1656,1692,6.514,0,0,0,0,1,0,
65,4493.33,4049.74,4381.54,4189.74,4253.33,3590.26,4445.64,4481.03,4752.82,4530.26,4555.9,4357.95,4330.77,3992.31,1657,1694,6.522,0,0,0,0,1,0,
66,4487.69,4047.18,4377.95,4186.67,4243.08,3588.21,4439.49,4487.69,4749.74,4520,4544.1,4351.28,4322.05,3988.21,1656,1694,6.529,0,0,0,0,1,0,
67,4480,4038.97,4371.28,4183.59,4231.79,3581.03,4428.21,4541.54,4744.62,4514.36,4536.41,4343.08,4313.85,3987.69,1656,1694,6.537,0,0,0,0,1,0,
68,4473.85,4033.33,4368.72,4182.56,4228.21,3572.82,4426.67,4452.82,4736.41,4508.72,4536.41,4338.97,4309.74,3986.15,1655,1694,6.545,0,0,0,0,1,0,
69,4471.79,4034.87,4371.28,4181.54,4233.33,3570.77,4427.69,4344.1,4733.33,4503.08,4535.9,4341.03,4311.79,3984.1,1655,1696,6.553,0,0,0,0,1,0,
70,4474.87,4037.95,4373.33,4179.49,4234.87,3573.85,4426.15,4641.54,4737.95,4515.9,4538.46,4345.64,4315.9,3984.62,1654,1694,6.561,0,0,0,0,1,0,
71,4472.31,4032.82,4372.82,4181.54,4215.9,3571.79,4426.67,4240.51,4741.03,4517.44,4539.49,4346.67,4313.85,3984.1,1654,1696,6.568,0,0,0,0,1,0,
72,4472.82,4031.28,4376.41,4184.1,4213.85,3572.31,4429.23,3060,4738.97,4484.1,4536.92,4350.26,4312.82,3983.59,1655,1694,6.576,0,0,0,0,1,0,
73,4484.1,4039.49,4380,4184.1,4234.87,3574.36,4428.72,3208.21,4739.49,4480.51,4543.59,4355.38,4321.54,3989.23,1653,1694,6.584,0,0,0,0,1,0,
74,4484.1,4040,4374.87,4182.05,4230.26,3570.77,4427.18,4432.82,4745.64,4520.51,4552.31,4353.33,4328.21,3993.33,1655,1694,6.592,0,0,0,0,1,0,
75,4473.85,4038.46,4372.82,4182.05,4216.41,3577.95,4425.64,4649.74,4749.23,4530.26,4554.87,4350.77,4323.08,3990.26,1655,1694,6.6,0,0,0,0,1,0,
76,4476.92,4045.64,4382.05,4185.64,4228.72,3588.72,4428.21,4302.05,4750.77,4516.92,4554.87,4358.97,4325.13,3991.28,1656,1694,6.608,0,0,0,0,1,0,
77,4481.03,4043.59,4381.54,4186.15,4231.28,3580.51,4428.72,4494.36,4745.64,4520,4549.23,4360,4328.21,3992.82,1656,1692,6.615,0,0,0,0,1,0,
78,4473.85,4031.28,4371.28,4182.05,4211.79,3570.77,4425.13,4580,4733.85,4514.87,4536.92,4346.15,4315.38,3988.21,1656,1693,6.623,0,0,0,0,1,0,
79,4479.49,4037.44,4375.9,4184.1,4215.38,3582.56,4426.15,4455.9,4731.28,4511.79,4535.38,4348.72,4312.31,3991.28,1656,1692,6.631,0,0,0,0,1,0,
80,4490.26,4050.26,4385.64,4191.79,4227.69,3592.31,4431.28,4494.36,4736.41,4518.97,4543.59,4364.62,4325.13,3994.36,1656,1693,6.639,0,0,0,0,1,0,
81,4485.64,4048.72,4382.05,4193.33,4217.44,3585.64,4430.26,4487.18,4734.36,4508.21,4545.64,4364.62,4326.15,3989.23,1656,1691,6.647,0,0,0,0,1,0,
82,4484.62,4047.69,4376.92,4189.74,4213.33,3582.56,4426.67,4482.05,4732.82,4506.15,4548.21,4354.36,4322.05,3993.33,1655,1693,6.654,0,0,0,0,1,0,
83,4493.33,4052.31,4378.97,4188.72,4225.64,3586.15,4423.08,4487.18,4738.46,4526.15,4553.33,4355.9,4330.26,4007.69,1657,1692,6.662,0,0,0,0,1,0,
84,4491.79,4048.21,4375.9,4187.69,4226.67,3584.1,4417.44,4488.72,4738.97,4526.67,4552.82,4359.49,4333.33,4005.64,1655,1692,6.67,0,0,0,0,1,0,
85,4480.51,4044.1,4374.87,4185.64,4215.38,3583.08,4416.92,4488.21,4734.87,4516.41,4553.33,4355.9,4327.69,3992.82,1656,1692,6.678,0,0,0,0,1,0,
86,4476.92,4050.77,4381.54,4184.62,4216.92,3588.21,4420.51,4485.64,4736.92,4520,4552.82,4357.95,4327.69,3990.77,1655,1691,6.686,0,0,0,0,1,0,
87,4475.9,4047.18,4377.44,4185.13,4217.44,3587.18,4415.9,4487.69,4737.95,4514.87,4543.59,4355.9,4325.13,3990.26,1654,1692,6.694,0,0,0,0,1,0,
