COUNTER,AF3,F7,F3, FC5, T7, P7, O1, O2,P8, T8, FC6, F4,F8, AF4,GYROX, GYROY, TIMESTAMP, FUNC_ID, FUNC_VALUE, MARKER, SYNC_SIGNAL,
47,4065.64,4216.41,4083.59,3915.9,4440,4200,4583.08,4540,4317.44,3924.1,4269.23,4616.92,4365.64,4589.74,1694,1686,0.137,0,0,0,0,
48,4059.49,4216.92,4082.05,3910.26,4445.64,4200,4586.15,4542.05,4315.38,3911.28,4257.44,4618.46,4365.64,4584.62,1698,1668,0.146,0,0,0,0,
49,4054.87,4211.79,4076.92,3902.56,4441.54,4201.03,4589.23,4542.56,4320,3909.23,4232.31,4616.41,4367.18,4567.69,1700,1660,0.153,0,0,0,0,
50,4057.44,4214.87,4075.9,3906.67,4441.03,4204.62,4587.69,4542.05,4321.54,3917.95,4238.97,4610.26,4368.72,4566.15,1702,1663,0.23,0,0,0,0,
51,4056.92,4217.44,4078.97,3911.28,4445.13,4205.13,4586.67,4538.97,4315.9,3910.77,4250.26,4603.08,4367.18,4574.87,1701,1677,0.246,0,0,0,0,
52,4051.79,4216.41,4072.82,3912.31,4442.56,4200.51,4588.21,4540,4318.46,3900,4236.92,4598.46,4364.1,4570.77,1701,1691,0.246,0,0,0,0,
53,4053.33,4214.36,4063.08,3908.21,4437.95,4196.92,4586.67,4540.51,4321.54,3896.92,4227.18,4592.82,4363.08,4564.1,1698,1704,0.246,0,0,0,0,
54,4053.33,4207.18,4058.46,3899.49,4442.05,4197.95,4575.9,4524.1,4305.13,3892.31,4232.82,4588.21,4361.03,4564.1,1698,1711,0.246,0,0,0,0,
55,4045.13,4197.95,4055.9,3900.51,4444.1,4202.05,4567.69,4508.21,4292.31,3902.05,4236.41,4594.36,4355.9,4562.56,1695,1712,0.246,0,0,0,0,
56,4044.62,4205.13,4063.08,3911.79,4433.33,4200,4576.41,4519.49,4305.64,3919.49,4234.87,4603.59,4357.44,4563.59,1694,1709,0.246,0,0,0,0,
57,4052.31,4216.41,4072.82,3913.33,4426.67,4195.9,4586.67,4528.72,4309.74,3907.18,4232.82,4601.54,4359.49,4568.21,1694,1696,0.246,0,0,0,0,
58,4047.18,4207.18,4068.21,3904.62,4436.41,4199.49,4584.62,4521.03,4299.49,3889.23,4232.82,4603.59,4347.18,4567.69,1692,1687,0.246,0,0,0,0,
59,4039.49,4196.92,4067.69,3901.03,4442.05,4202.56,4583.08,4530.77,4308.72,3909.74,4235.9,4615.38,4346.67,4567.69,1690,1681,0.249,0,0,0,0,
60,4038.97,4198.97,4074.87,3895.38,4435.38,4201.54,4589.74,4544.1,4318.46,3921.03,4235.38,4618.46,4360,4568.72,1688,1679,0.249,0,0,0,0,
61,4036.41,4198.46,4072.31,3889.74,4440,4205.64,4587.18,4530.77,4305.13,3894.36,4229.23,4610.77,4358.97,4568.72,1687,1682,0.249,0,0,0,0,
62,4042.05,4197.95,4069.23,3900,4445.64,4204.1,4576.92,4517.44,4295.9,3887.69,4232.31,4611.79,4360.51,4575.38,1684,1686,0.254,0,0,0,0,
63,4056.41,4204.1,4073.85,3909.74,4433.33,4190.26,4572.82,4523.59,4299.49,3905.13,4243.08,4616.92,4374.87,4583.59,1683,1691,0.262,0,0,0,0,
64,4065.13,4206.15,4075.9,3909.74,4426.67,4183.08,4574.87,4530.77,4305.64,3910.26,4248.72,4618.97,4375.38,4584.1,1680,1697,0.271,0,0,0,0,
65,4062.56,4204.1,4075.9,3909.23,4441.03,4188.72,4575.9,4529.23,4313.33,3911.28,4248.21,4623.08,4365.13,4583.59,1680,1701,0.278,0,0,0,0,
66,4055.9,4203.59,4078.46,3906.15,4444.62,4188.21,4572.82,4522.05,4308.21,3915.38,4247.18,4621.03,4371.79,4584.62,1676,1701,0.286,0,0,0,0,
67,4050.26,4200.51,4078.46,3894.36,4432.31,4183.59,4571.79,4520,4300,3907.69,4239.49,4615.38,4372.82,4577.95,1674,1699,0.293,0,0,0,0,
68,4045.64,4199.49,4076.92,3888.72,4429.23,4190.26,4577.95,4534.36,4318.46,3910.26,4229.74,4616.41,4356.92,4569.74,1672,1695,0.301,0,0,0,0,
69,4042.56,4201.03,4075.38,3893.85,4431.28,4202.05,4582.05,4545.64,4333.33,3921.03,4235.9,4617.95,4355.38,4569.74,1670,1696,0.309,0,0,0,0,
70,4042.05,4192.82,4074.36,3893.85,4433.85,4204.1,4576.41,4533.33,4321.03,3916.41,4247.69,4615.9,4367.69,4570.26,1669,1697,0.318,0,0,0,0,
71,4044.62,4186.67,4076.41,3892.31,4437.95,4198.46,4573.33,4526.15,4315.9,3915.38,4248.21,4616.41,4368.21,4573.33,1669,1701,0.325,0,0,0,0,
72,4049.23,4196.41,4077.44,3894.36,4435.9,4195.38,4581.03,4533.85,4320.51,3923.08,4245.13,4618.97,4364.1,4582.05,1669,1701,0.333,0,0,0,0,
73,4052.82,4206.15,4073.85,3894.87,4434.36,4198.46,4584.1,4531.28,4313.33,3919.49,4247.69,4620.51,4372.82,4589.23,1668,1699,0.34,0,0,0,0,
74,4051.28,4202.05,4071.28,3895.38,4442.05,4200,4583.08,4525.64,4304.62,3909.23,4247.18,4620,4375.38,4586.15,1670,1694,0.349,0,0,0,0,
75,4044.1,4198.46,4067.69,3896.41,4444.62,4200.51,4584.62,4534.87,4309.74,3910.77,4236.92,4617.44,4363.59,4575.9,1669,1688,0.356,0,0,0,0,
76,4043.59,4201.54,4065.13,3895.38,4440.51,4202.05,4588.72,4543.08,4318.97,3915.38,4238.46,4621.03,4362.05,4575.38,1672,1683,0.364,0,0,0,0,
77,4050.77,4201.03,4070.77,3893.33,4442.05,4203.59,4589.74,4540.51,4324.62,3909.74,4246.15,4626.15,4370.26,4584.62,1671,1679,0.372,0,0,0,0,
78,4050.26,4202.56,4073.33,3893.33,4443.59,4201.54,4588.21,4541.03,4327.69,3914.36,4241.54,4625.64,4372.82,4582.05,1672,1682,0.38,0,0,0,0,
79,4036.92,4203.08,4063.59,3893.85,4442.56,4199.49,4585.64,4540,4318.97,3928.72,4231.28,4616.41,4367.69,4569.74,1674,1684,0.394,0,0,0,0,
80,4038.97,4198.46,4062.05,3893.33,4443.59,4200,4584.1,4535.9,4309.23,3925.13,4234.36,4614.36,4360.51,4576.41,1675,1687,0.401,0,0,0,0,
81,4057.44,4204.62,4073.85,3895.9,4447.18,4198.46,4586.67,4538.97,4309.23,3911.79,4243.08,4625.13,4367.69,4588.21,1676,1688,0.409,0,0,0,0,
82,4060,4214.87,4078.97,3906.15,4447.18,4188.72,4584.1,4536.41,4307.69,3907.69,4237.95,4631.79,4380.51,4586.15,1678,1689,0.411,0,0,0,0,
83,4049.23,4209.74,4074.87,3908.21,4440,4184.62,4574.36,4526.67,4308.21,3912.31,4233.85,4629.74,4372.31,4583.59,1678,1689,0.419,0,0,0,0,
84,4047.69,4200,4073.85,3898.97,4438.46,4196.41,4568.72,4521.03,4308.21,3917.44,4236.92,4628.72,4356.92,4583.59,1680,1691,0.426,0,0,0,0,
85,4051.28,4202.56,4080,3900,4444.1,4204.1,4572.82,4523.59,4300,3917.95,4238.46,4631.28,4362.05,4583.59,1682,1693,0.434,0,0,0,0,
86,4051.28,4206.15,4084.62,3904.62,4438.97,4192.31,4580.51,4530.77,4301.54,3914.36,4243.08,4635.9,4373.85,4584.1,1686,1695,0.442,0,0,0,0,
87,4051.79,4204.62,4084.1,3898.46,4430.26,4182.56,4584.62,4538.46,4315.38,3910.77,4249.74,4643.59,4370.26,4585.13,1689,1691,0.45,0,0,0,0,
88,4049.74,4202.05,4082.05,3894.87,4437.95,4192.82,4584.62,4541.03,4317.44,3910.77,4243.59,4645.13,4357.44,4583.08,1692,1688,0.458,0,0,0,0,
89,4045.64,4201.03,4078.46,3897.44,4446.15,4202.56,4584.1,4538.46,4314.87,3918.46,4235.9,4637.95,4354.36,4582.05,1695,1684,0.466,0,0,0,0,
90,4040.51,4198.97,4078.97,3894.87,4437.95,4200.51,4585.64,4539.49,4317.44,3925.13,4247.18,4636.41,4367.69,4585.64,1696,1682,0.473,0,0,0,0,
91,4033.85,4192.82,4078.46,3892.82,4432.82,4199.49,4587.18,4542.05,4317.44,3918.46,4247.69,4640,4373.33,4588.21,1700,1679,0.481,0,0,0,0,
92,4035.9,4189.23,4071.79,3892.82,4437.95,4202.05,4589.23,4540,4315.9,3915.9,4232.82,4642.56,4364.62,4584.1,1702,1679,0.489,0,0,0,0,
93,4043.59,4187.69,4068.21,3890.26,4435.38,4200.51,4587.69,4536.41,4315.38,3928.72,4232.31,4640,4364.1,4581.54,1705,1678,0.497,0,0,0,0,
94,4042.05,4183.08,4073.85,3891.28,4432.82,4197.95,4583.08,4543.59,4318.97,3930.26,4243.08,4635.9,4368.21,4583.59,1707,1679,0.505,0,0,0,0,
95,4038.97,4187.69,4076.41,3895.38,4438.46,4200.51,4587.69,4554.87,4326.67,3921.54,4247.69,4640,4364.62,4585.13,1710,1679,0.512,0,0,0,0,
96,4044.1,4201.54,4074.87,3896.92,4441.54,4202.56,4597.44,4549.23,4326.15,3924.62,4246.67,4642.05,4370.77,4587.69,1712,1679,0.52,0,0,0,0,
97,4046.15,4202.56,4075.9,3895.38,4442.05,4203.59,4594.36,4537.44,4320,3928.72,4244.1,4636.92,4372.82,4589.74,1712,1680,0.528,0,0,0,0,
98,4041.03,4192.31,4075.9,3895.9,4443.08,4200.51,4584.62,4535.38,4307.18,3913.33,4235.9,4629.23,4354.36,4579.49,1714,1679,0.537,0,0,0,0,
99,4037.44,4191.79,4076.92,3896.92,4442.05,4199.49,4585.13,4539.49,4296.41,3899.49,4227.18,4623.59,4350.26,4573.33,1713,1682,0.544,0,0,0,0,
100,4036.92,4189.74,4077.44,3894.87,4436.41,4198.97,4584.1,4534.87,4297.95,3905.13,4228.21,4621.54,4360.51,4575.38,1713,1681,0.552,0,0,0,0,
101,4035.38,4185.64,4074.36,3893.85,4430.26,4189.23,4572.82,4524.1,4296.41,3906.15,4231.28,4624.1,4353.85,4572.31,1712,1677,0.559,0,0,0,0,
102,4037.44,4192.31,4076.92,3896.92,4427.18,4188.21,4572.31,4525.64,4293.33,3894.87,4228.72,4628.21,4344.1,4574.36,1710,1670,0.567,0,0,0,0,
103,4042.05,4198.97,4081.54,3898.46,4430.26,4200.51,4582.56,4535.38,4302.56,3893.85,4227.18,4631.28,4347.18,4581.54,1707,1662,0.575,0,0,0,0,
104,4045.64,4201.03,4080,3897.44,4438.46,4196.41,4582.05,4532.82,4305.64,3907.18,4232.31,4634.87,4354.36,4584.1,1707,1653,0.583,0,0,0,0,
105,4043.59,4199.49,4076.92,3896.41,4440.51,4183.59,4574.36,4523.59,4297.44,3912.31,4236.92,4633.33,4355.9,4583.59,1703,1650,0.591,0,0,0,0,
106,4038.97,4192.31,4074.36,3893.85,4434.36,4186.67,4571.79,4521.03,4289.74,3901.54,4227.69,4624.1,4350.77,4580.51,1702,1653,0.598,0,0,0,0,
107,4035.38,4186.67,4070.77,3890.26,4426.67,4188.21,4571.79,4521.54,4285.64,3889.23,4215.9,4618.97,4341.03,4571.79,1699,1660,0.606,0,0,0,0,
108,4029.23,4191.28,4066.67,3893.85,4426.67,4181.03,4568.72,4517.44,4280.51,3887.69,4217.44,4617.44,4336.41,4565.64,1698,1670,0.614,0,0,0,0,
109,4025.13,4189.74,4060.51,3892.31,4430.26,4184.62,4567.69,4512.31,4283.08,3895.9,4227.18,4620.51,4347.18,4574.36,1697,1671,0.622,0,0,0,0,
110,4035.38,4183.08,4060.51,3882.05,4430.26,4189.74,4569.74,4515.9,4293.33,3908.72,4233.33,4627.69,4372.82,4588.72,1695,1671,0.63,0,0,0,0,
111,4046.67,4187.69,4067.18,3883.59,4429.23,4185.64,4570.26,4525.13,4297.44,3910.77,4234.87,4628.21,4378.97,4592.31,1696,1665,0.638,0,0,0,0,
112,4041.54,4189.23,4068.72,3888.72,4427.18,4184.1,4569.23,4532.82,4300.51,3901.54,4233.85,4617.95,4362.05,4584.1,1695,1662,0.646,0,0,0,0,
113,4035.38,4184.62,4068.21,3882.05,4427.18,4188.21,4569.74,4529.74,4307.18,3906.67,4230.26,4611.79,4357.95,4579.49,1696,1666,0.653,0,0,0,0,
114,4038.46,4184.62,4073.33,3876.41,4429.23,4190.77,4570.77,4527.18,4307.18,3918.46,4230.77,4621.03,4362.05,4583.08,1696,1673,0.661,0,0,0,0,
115,4037.95,4187.18,4075.9,3884.62,4427.69,4188.21,4572.82,4532.31,4298.46,3907.18,4233.33,4627.18,4356.41,4586.15,1699,1682,0.669,0,0,0,0,
116,4034.87,4188.21,4074.87,3893.85,4427.18,4192.31,4574.36,4532.82,4296.41,3893.85,4227.18,4621.54,4356.92,4583.59,1700,1687,0.677,0,0,0,0,
117,4037.95,4187.18,4073.33,3889.74,4432.82,4197.95,4573.85,4525.64,4297.44,3893.85,4216.41,4616.92,4360,4574.36,1703,1691,0.685,0,0,0,0,
118,4041.54,4184.62,4069.74,3881.54,4432.82,4191.79,4572.82,4520,4290.26,3885.64,4214.87,4613.85,4349.74,4569.74,1705,1691,0.692,0,0,0,0,
119,4040.51,4184.62,4066.15,3877.95,4424.1,4184.1,4570.77,4524.1,4286.67,3879.49,4216.41,4608.72,4342.56,4570.26,1706,1691,0.7,0,0,0,0,
120,4034.87,4186.15,4067.18,3879.49,4423.08,4185.13,4571.28,4535.38,4301.03,3900,4216.41,4612.82,4348.72,4573.85,1709,1689,0.708,0,0,0,0,
121,4027.18,4186.15,4070.26,3878.97,4424.62,4187.69,4574.87,4544.1,4321.54,3916.92,4223.08,4621.54,4351.28,4575.9,1710,1688,0.716,0,0,0,0,
122,4029.23,4185.64,4071.79,3877.95,4420.51,4185.64,4572.82,4541.54,4317.44,3901.54,4230.77,4621.54,4343.59,4572.31,1713,1684,0.724,0,0,0,0,
123,4040.51,4185.64,4073.85,3885.64,4422.05,4183.08,4572.31,4542.56,4305.64,3893.85,4227.69,4617.95,4345.64,4572.31,1713,1681,0.731,0,0,0,0,
124,4046.15,4186.67,4076.41,3891.28,4429.23,4192.31,4577.95,4551.79,4315.38,3910.26,4228.21,4620.51,4358.46,4574.36,1716,1679,0.74,0,0,0,0,
125,4043.08,4188.21,4077.95,3889.74,4430.77,4200.51,4578.46,4541.03,4317.44,3914.87,4229.74,4623.08,4358.97,4573.33,1716,1678,0.747,0,0,0,0,
126,4041.54,4189.23,4078.46,3889.74,4427.69,4191.79,4570.77,4523.59,4299.49,3907.69,4224.1,4623.59,4355.38,4577.44,1718,1679,0.755,0,0,0,0,
127,4045.13,4190.26,4079.49,3893.85,4426.67,4184.1,4568.72,4526.67,4295.9,3908.72,4223.59,4624.1,4360,4584.62,1718,1680,0.763,0,0,0,0,
128,4052.31,4195.38,4083.59,3893.85,4426.67,4193.33,4576.92,4536.41,4305.13,3909.23,4231.79,4627.69,4362.05,4585.13,1720,1680,0.771,0,0,0,0,
0,4056.92,4203.08,4088.21,3896.41,4429.23,4198.97,4584.1,4537.44,4311.79,3912.31,4236.41,4634.36,4363.08,4588.72,1720,1680,0.778,0,0,0,0,
1,4050.77,4199.49,4084.62,3894.87,4434.87,4197.95,4582.56,4533.85,4309.74,3919.49,4232.82,4634.87,4366.15,4592.31,1720,1681,0.786,0,0,0,0,
2,4044.1,4186.67,4075.38,3886.15,4436.92,4201.54,4578.46,4532.82,4300,3913.85,4228.21,4627.18,4363.59,4586.67,1722,1680,0.794,0,0,0,0,
3,4049.74,4189.74,4080,3890.26,4432.31,4200.51,4584.1,4536.41,4303.08,3913.33,4234.87,4629.74,4368.21,4591.28,1721,1684,0.802,0,0,0,0,
4,4055.38,4202.05,4093.85,3897.95,4433.85,4197.44,4589.23,4543.59,4315.9,3925.64,4247.69,4640,4380,4604.1,1723,1684,0.81,0,0,0,0,
5,4049.74,4202.05,4088.21,3892.31,4442.05,4200,4586.15,4551.28,4316.41,3929.74,4245.64,4638.46,4377.95,4603.59,1724,1681,0.817,0,0,0,0,
6,4051.79,4196.92,4076.41,3888.72,4445.13,4200,4587.18,4554.36,4314.87,3931.28,4239.49,4633.33,4374.36,4600,1725,1677,0.825,0,0,0,0,
7,4061.54,4202.56,4084.1,3897.44,4440,4196.92,4586.67,4550.77,4325.64,3942.05,4250.77,4641.03,4388.72,4610.26,1726,1672,0.833,0,0,0,0,
8,4056.41,4205.13,4085.64,3894.87,4437.44,4200.51,4584.1,4545.13,4326.67,3940.51,4248.72,4640.51,4391.28,4606.15,1725,1672,0.841,0,0,0,0,
9,4047.18,4197.95,4070.26,3881.54,4439.49,4205.13,4585.13,4540,4306.15,3924.62,4234.87,4628.21,4368.72,4589.23,1726,1673,0.849,0,0,0,0,
10,4055.38,4198.46,4071.28,3883.08,4438.97,4193.85,4578.97,4533.33,4292.31,3922.56,4241.03,4629.74,4369.74,4594.36,1726,1678,0.857,0,0,0,0,
11,4060,4202.56,4084.62,3894.36,4436.92,4183.08,4568.21,4531.28,4303.08,3928.72,4250.26,4640,4395.9,4608.72,1727,1683,0.864,0,0,0,0,
12,4053.85,4200.51,4082.05,3896.41,4438.97,4188.72,4567.69,4535.38,4314.36,3921.54,4245.13,4635.38,4393.33,4603.08,1725,1697,0.872,0,0,0,0,
13,4053.85,4205.64,4077.95,3890.77,4445.13,4196.41,4575.38,4539.49,4311.28,3913.85,4243.59,4629.23,4374.36,4595.9,1724,1699,0.88,0,0,0,0,
14,4064.62,4217.44,4087.69,3893.33,4442.56,4194.87,4578.97,4537.95,4310.77,3921.54,4249.23,4636.92,4382.56,4605.13,1724,1697,0.888,0,0,0,0,
15,4069.74,4212.31,4092.31,3895.9,4436.92,4194.36,4580.51,4540.51,4317.95,3926.15,4246.15,4645.64,4393.85,4609.23,1721,1692,0.908,0,0,0,0,
16,4061.03,4197.95,4085.13,3887.18,4437.95,4197.95,4585.13,4553.33,4324.62,3922.56,4237.44,4639.49,4382.56,4598.46,1720,1689,0.909,0,0,0,0,
17,4049.23,4194.36,4080,3879.49,4441.03,4200.51,4585.64,4560,4326.15,3926.67,4235.9,4632.31,4374.87,4591.28,1718,1688,0.912,0,0,0,0,
18,4048.21,4196.92,4080.51,3877.95,4440,4202.05,4576.41,4545.64,4312.31,3924.62,4235.9,4632.82,4374.87,4588.21,1716,1691,0.919,0,0,0,0,
19,4053.33,4197.95,4082.56,3881.54,4437.95,4197.44,4567.69,4524.1,4291.28,3907.18,4233.85,4633.85,4373.85,4586.67,1714,1693,0.927,0,0,0,0,
20,4052.82,4198.97,4085.64,3886.67,4441.54,4185.64,4568.21,4516.92,4286.15,3902.05,4238.97,4636.92,4378.97,4593.33,1712,1696,0.935,0,0,0,0,
21,4055.9,4202.56,4086.67,3890.26,4444.62,4185.64,4570.77,4523.08,4291.28,3910.26,4250.26,4641.54,4385.64,4604.62,1710,1694,0.943,0,0,0,0,
22,4061.03,4203.59,4081.54,3890.77,4444.62,4192.82,4572.31,4528.72,4294.36,3911.79,4249.74,4640,4385.64,4604.1,1705,1695,0.95,0,0,0,0,
23,4062.05,4202.56,4080.51,3888.72,4444.1,4190.77,4572.31,4525.13,4294.36,3908.21,4243.59,4634.87,4383.59,4598.46,1703,1695,0.958,0,0,0,0,
24,4062.56,4199.49,4084.62,3885.64,4442.05,4188.21,4571.79,4527.18,4294.36,3908.21,4248.72,4638.46,4384.62,4604.1,1700,1694,0.966,0,0,0,0,
25,4056.41,4190.77,4081.03,3881.54,4441.54,4195.38,4578.46,4537.95,4298.97,3912.31,4246.15,4641.03,4386.15,4603.59,1698,1694,0.974,0,0,0,0,
26,4045.64,4183.59,4071.79,3873.85,4442.56,4201.54,4585.13,4543.08,4308.72,3916.92,4238.97,4634.87,4378.46,4592.82,1696,1692,0.983,0,0,0,0,
27,4037.44,4181.54,4071.28,3863.59,4443.08,4201.54,4584.62,4542.05,4313.33,3914.87,4240.51,4627.69,4369.23,4587.18,1694,1692,0.99,0,0,0,0,
28,4033.33,4181.54,4071.28,3865.64,4444.1,4198.46,4580,4533.85,4304.1,3902.56,4241.03,4625.13,4370.77,4587.18,1692,1690,0.997,0,0,0,0,
29,4037.95,4183.08,4067.18,3880,4444.62,4197.95,4573.85,4527.69,4298.46,3901.03,4240,4631.28,4378.46,4590.26,1691,1687,1.005,0,0,0,0,
30,4049.23,4186.15,4069.74,3880,4442.56,4197.44,4575.38,4533.33,4307.69,3911.79,4247.69,4640,4382.56,4598.46,1690,1683,1.013,0,0,0,0,
31,4052.31,4187.18,4075.9,3872.82,4443.59,4194.36,4578.97,4536.41,4307.69,3917.44,4253.33,4642.56,4387.18,4603.59,1689,1681,1.025,0,0,0,0,
32,4056.41,4186.15,4074.87,3876.92,4445.64,4190.77,4572.82,4532.31,4297.95,3913.85,4249.23,4639.49,4389.74,4601.54,1691,1680,1.029,0,0,0,0,
33,4061.03,4187.69,4076.92,3882.56,4443.08,4193.33,4573.33,4534.36,4300.51,3912.31,4248.72,4636.41,4390.26,4602.05,1690,1684,1.036,0,0,0,0,
34,4054.36,4189.23,4078.46,3881.54,4447.69,4198.97,4582.56,4536.92,4307.69,3920.51,4248.21,4634.36,4394.36,4603.08,1691,1689,1.044,0,0,0,0,
35,4050.77,4189.23,4070.26,3878.46,4452.82,4200.51,4582.56,4536.92,4308.21,3924.1,4246.15,4632.82,4395.9,4601.54,1690,1696,1.053,0,0,0,0,
36,4054.87,4189.74,4063.59,3876.92,4450.26,4198.97,4577.44,4535.9,4307.18,3915.38,4248.21,4631.79,4390.77,4602.05,1691,1700,1.06,0,0,0,0,
37,4054.87,4196.41,4067.69,3877.44,4451.79,4197.44,4574.87,4528.72,4299.49,3906.15,4246.15,4628.21,4389.74,4602.05,1692,1696,1.068,0,0,0,0,
38,4055.38,4200,4072.31,3878.46,4454.36,4197.95,4575.9,4527.18,4295.9,3909.74,4244.62,4628.72,4391.28,4600,1692,1691,1.076,0,0,0,0,
39,4061.03,4192.82,4074.36,3873.33,4447.18,4197.95,4582.56,4541.54,4313.33,3912.82,4250.77,4632.82,4389.74,4602.05,1692,1685,1.083,0,0,0,0,
40,4062.05,4187.18,4074.87,3870.77,4443.08,4198.97,4585.64,4543.08,4322.05,3909.23,4247.69,4630.77,4386.67,4602.05,1692,1685,1.091,0,0,0,0,
41,4053.85,4185.64,4071.28,3876.41,4450.77,4203.08,4581.03,4529.23,4306.15,3908.21,4236.41,4623.59,4383.59,4591.79,1692,1688,1.099,0,0,0,0,
42,4049.23,4187.18,4073.85,3878.46,4456.92,4204.62,4582.05,4521.54,4290.26,3908.21,4238.97,4626.15,4385.13,4588.72,1691,1694,1.107,0,0,0,0,
43,4061.03,4199.49,4085.64,3883.08,4457.95,4202.05,4584.1,4521.54,4291.28,3909.74,4249.74,4636.41,4393.33,4600.51,1692,1695,1.115,0,0,0,0,
44,4085.64,4212.82,4092.82,3894.87,4457.44,4197.95,4575.38,4520.51,4295.38,3911.79,4248.21,4636.92,4395.38,4606.15,1690,1694,1.122,0,0,0,0,
45,4091.28,4208.21,4092.31,3891.79,4457.44,4197.95,4572.82,4518.97,4291.79,3912.31,4243.59,4634.36,4384.1,4600,1690,1691,1.13,0,0,0,0,
46,4074.36,4200.51,4088.72,3879.49,4460,4200.51,4582.05,4525.64,4292.31,3912.82,4247.18,4641.54,4380,4601.03,1689,1687,1.138,0,0,0,0,
47,4067.18,4203.59,4085.64,3881.54,4460,4202.05,4589.23,4536.92,4303.08,3913.85,4250.26,4644.62,4391.28,4604.62,1689,1689,1.147,0,0,0,0,
48,4072.82,4203.59,4086.15,3884.62,4457.44,4203.59,4585.13,4539.49,4305.64,3912.31,4245.13,4636.92,4392.82,4602.05,1688,1691,1.154,0,0,0,0,
49,4069.74,4198.97,4089.74,3878.46,4455.38,4203.59,4581.54,4535.9,4296.92,3908.21,4242.56,4633.33,4383.08,4601.54,1686,1695,1.162,0,0,0,0,
50,4064.1,4195.38,4087.18,3877.95,4457.95,4201.54,4583.59,4536.41,4300.51,3910.26,4245.13,4637.44,4382.05,4602.56,1687,1698,1.169,0,0,0,0,
51,4067.18,4190.77,4081.54,3877.44,4462.05,4201.54,4585.13,4538.46,4311.28,3912.82,4246.67,4640,4384.62,4601.54,1685,1700,1.177,0,0,0,0,
52,4066.15,4183.59,4080.51,3867.69,4454.36,4204.1,4587.69,4541.54,4308.21,3909.23,4244.1,4638.46,4380,4601.54,1685,1699,1.186,0,0,0,0,
53,4061.54,4181.54,4085.64,3868.72,4443.08,4204.1,4589.23,4548.21,4307.18,3907.69,4244.1,4641.03,4376.92,4601.03,1684,1696,1.193,0,0,0,0,
54,4071.79,4186.15,4092.82,3880.51,4442.05,4201.54,4589.74,4555.9,4323.08,3922.05,4248.21,4647.69,4382.56,4602.56,1684,1691,1.201,0,0,0,0,
55,4087.18,4194.87,4095.38,3883.59,4445.64,4200,4590.26,4555.9,4332.31,3934.36,4250.77,4649.74,4389.23,4608.21,1683,1687,1.208,0,0,0,0,
56,4085.64,4194.36,4091.79,3877.95,4443.59,4200,4588.21,4545.13,4317.95,3920.51,4248.21,4647.18,4389.23,4608.21,1684,1686,1.216,0,0,0,0,
57,4074.87,4184.1,4089.23,3870.26,4440.51,4199.49,4585.13,4537.44,4306.67,3905.64,4244.1,4646.67,4385.13,4608.21,1682,1685,1.224,0,0,0,0,
58,4074.87,4181.03,4091.79,3864.62,4443.59,4200,4584.1,4536.92,4310.26,3912.31,4244.1,4648.72,4389.74,4613.85,1682,1687,1.233,0,0,0,0,
59,4077.95,4184.62,4089.74,3864.1,4445.13,4201.03,4583.59,4536.41,4308.72,3918.97,4249.74,4648.72,4391.79,4613.33,1682,1687,1.24,0,0,0,0,
60,4071.28,4184.1,4084.1,3868.21,4441.54,4198.97,4581.03,4536.92,4305.13,3913.33,4246.15,4642.05,4381.54,4608.21,1681,1691,1.248,0,0,0,0,
61,4063.08,4179.49,4081.03,3866.67,4440,4197.95,4578.97,4534.36,4306.15,3910.77,4233.33,4635.9,4376.41,4605.64,1682,1695,1.255,0,0,0,0,
62,4062.56,4176.41,4082.56,3860.51,4443.59,4199.49,4578.46,4528.72,4298.97,3909.74,4235.38,4640.51,4382.56,4607.69,1681,1700,1.264,0,0,0,0,
63,4066.15,4180.51,4086.67,3865.13,4444.62,4201.54,4584.1,4535.38,4298.97,3911.28,4249.74,4647.18,4390.77,4613.85,1681,1702,1.271,0,0,0,0,
64,4069.23,4187.69,4091.28,3875.9,4443.08,4204.1,4593.33,4551.79,4320,3925.13,4254.36,4651.28,4397.44,4620,1681,1703,1.279,0,0,0,0,
65,4070.26,4185.13,4091.79,3870.77,4443.59,4205.64,4592.82,4557.44,4334.36,3935.9,4250.77,4651.28,4398.46,4618.97,1681,1707,1.287,0,0,0,0,
66,4072.31,4182.05,4089.74,3864.1,4442.05,4204.1,4587.69,4551.28,4322.05,3925.13,4248.21,4649.74,4396.41,4615.9,1680,1709,1.295,0,0,0,0,
67,4075.9,4187.69,4092.31,3875.38,4444.1,4203.59,4586.67,4536.92,4300.51,3909.74,4245.13,4648.72,4392.31,4613.33,1680,1715,1.302,0,0,0,0,
68,4073.33,4189.23,4093.85,3882.05,4449.23,4208.21,4586.15,4521.54,4289.23,3906.15,4243.59,4649.74,4383.08,4610.26,1678,1716,1.31,0,0,0,0,
69,4069.23,4183.59,4091.28,3875.38,4448.21,4210.77,4584.1,4524.1,4292.31,3908.72,4245.13,4648.72,4384.62,4617.95,1679,1715,1.318,0,0,0,0,
70,4074.87,4185.64,4092.31,3871.28,4446.15,4211.28,4584.62,4536.41,4301.03,3914.87,4249.74,4650.26,4402.05,4634.87,1678,1714,1.326,0,0,0,0,
71,4082.56,4188.21,4100.51,3869.74,4445.64,4209.74,4584.62,4536.41,4304.1,3919.49,4256.92,4656.92,4413.85,4645.13,1678,1709,1.334,0,0,0,0,
72,4079.49,4178.97,4105.13,3865.64,4447.18,4211.28,4585.13,4536.92,4308.72,3927.69,4262.05,4664.62,4421.54,4650.77,1675,1706,1.341,0,0,0,0,
73,4068.72,4165.64,4096.41,3864.62,4448.21,4218.46,4587.69,4536.41,4314.36,3936.92,4265.64,4666.15,4428.21,4655.9,1675,1704,1.349,0,0,0,0,
74,4063.08,4162.56,4088.21,3864.1,4443.59,4217.95,4587.18,4530.77,4312.82,3932.31,4265.13,4661.03,4422.05,4656.41,1671,1705,1.357,0,0,0,0,
75,4062.05,4169.23,4090.26,3864.1,4443.08,4212.82,4585.13,4532.82,4313.33,3928.21,4264.1,4663.08,4421.54,4654.36,1669,1705,1.365,0,0,0,0,
76,4058.97,4168.21,4094.36,3865.13,4448.72,4213.85,4586.67,4538.97,4321.54,3937.44,4267.69,4670.77,4429.74,4650.26,1665,1703,1.373,0,0,0,0,
77,4058.46,4161.54,4088.72,3865.13,4447.69,4217.44,4588.21,4545.13,4331.79,3948.21,4270.26,4668.72,4426.67,4643.08,1661,1702,1.381,0,0,0,0,
78,4063.08,4163.59,4080,3865.13,4446.67,4215.38,4587.18,4550.77,4332.31,3946.15,4265.64,4663.08,4422.56,4642.05,1659,1698,1.388,0,0,0,0,
79,4058.97,4167.69,4080,3866.67,4449.74,4216.41,4591.79,4548.21,4324.62,3934.87,4261.03,4662.05,4424.1,4641.54,1655,1699,1.396,0,0,0,0,
80,4051.28,4170.26,4081.54,3863.08,4447.18,4218.46,4593.85,4540,4315.38,3927.69,4261.54,4661.03,4417.95,4636.92,1655,1705,1.404,0,0,0,0,
81,4049.74,4165.13,4079.49,3861.54,4441.54,4215.38,4589.23,4537.44,4302.56,3923.59,4253.85,4656.41,4405.64,4629.74,1652,1712,1.412,0,0,0,0,
82,4046.67,4156.92,4075.38,3860,4441.03,4214.87,4587.18,4536.92,4297.95,3921.54,4245.64,4652.31,4402.05,4620.51,1652,1716,1.42,0,0,0,0,
83,4045.64,4162.05,4077.95,3853.33,4442.56,4216.92,4589.23,4541.03,4307.69,3922.05,4254.36,4656.41,4407.18,4622.56,1651,1713,1.427,0,0,0,0,
84,4049.23,4169.23,4086.67,3856.92,4443.59,4215.9,4594.87,4551.79,4314.87,3923.08,4263.59,4662.05,4409.74,4632.31,1652,1709,1.435,0,0,0,0,
85,4045.64,4164.62,4084.62,3861.03,4444.62,4215.38,4600,4557.44,4317.44,3925.64,4256.92,4658.97,4411.28,4628.21,1652,1704,1.449,0,0,0,0,
86,4031.28,4156.92,4078.97,3857.44,4444.1,4216.41,4600.51,4552.82,4320.51,3926.67,4247.69,4653.33,4406.67,4615.9,1653,1702,1.453,0,0,0,0,
87,4025.64,4156.41,4077.44,3858.97,4443.59,4218.97,4598.46,4550.26,4324.1,3925.64,4248.21,4652.31,4395.9,4613.33,1655,1696,1.459,0,0,0,0,
88,4036.41,4161.03,4076.41,3860.51,4446.15,4226.67,4601.03,4560,4336.41,3932.31,4253.85,4654.87,4394.36,4614.87,1656,1691,1.467,0,0,0,0,
89,4043.59,4168.72,4082.56,3860,4444.1,4229.23,4601.54,4559.49,4341.03,3936.41,4256.41,4656.92,4398.97,4614.87,1658,1685,1.474,0,0,0,0,
90,4037.95,4170.77,4083.59,3861.54,4445.13,4225.64,4598.97,4549.74,4332.82,3932.82,4252.82,4653.85,4400.51,4616.92,1659,1687,1.483,0,0,0,0,
91,4035.38,4166.15,4078.97,3865.64,4451.28,4230.26,4599.49,4547.18,4326.67,3928.72,4248.21,4647.69,4395.38,4614.36,1661,1691,1.491,0,0,0,0,
92,4041.54,4169.23,4086.15,3870.77,4450.77,4237.95,4601.54,4542.05,4320,3926.67,4248.72,4648.21,4392.82,4607.69,1662,1695,1.498,0,0,0,0,
93,4048.72,4177.44,4094.87,3872.31,4454.36,4234.87,4601.03,4537.44,4316.92,3931.28,4248.72,4651.79,4394.87,4608.72,1663,1700,1.506,0,0,0,0,
94,4053.33,4174.87,4088.21,3868.72,4460,4229.23,4599.49,4545.64,4324.1,3935.38,4247.69,4647.69,4391.28,4607.18,1664,1701,1.52,0,0,0,0,
95,4052.82,4168.72,4086.67,3861.54,4452.82,4231.28,4602.05,4558.46,4333.85,3936.92,4248.21,4647.18,4390.26,4603.08,1665,1699,1.522,0,0,0,0,
96,4046.67,4167.18,4095.9,3857.95,4444.62,4233.33,4603.59,4560.51,4334.36,3937.95,4248.21,4653.33,4395.38,4605.13,1666,1693,1.529,0,0,0,0,
97,4038.46,4169.74,4093.33,3858.97,4446.67,4231.79,4606.67,4558.46,4333.33,3935.9,4250.26,4653.85,4384.1,4606.67,1669,1687,1.546,0,0,0,0,
98,4034.36,4170.26,4087.18,3857.44,4446.15,4230.77,4609.23,4564.1,4339.49,3933.33,4248.72,4649.74,4373.85,4602.05,1669,1680,1.549,0,0,0,0,
99,4033.85,4165.64,4089.74,3857.95,4439.49,4230.26,4607.18,4559.49,4333.85,3927.69,4235.38,4645.13,4384.62,4593.85,1670,1676,1.553,0,0,0,0,
100,4028.72,4163.08,4087.69,3860,4445.13,4231.79,4603.08,4544.1,4315.38,3919.49,4228.72,4637.44,4386.15,4589.74,1672,1673,1.56,0,0,0,0,
101,4022.56,4167.18,4079.49,3857.95,4454.36,4232.82,4604.1,4543.08,4310.77,3916.41,4243.08,4629.23,4373.85,4589.23,1671,1676,1.568,0,0,0,0,
102,4028.21,4169.74,4081.03,3858.97,4452.31,4228.72,4605.64,4548.21,4317.95,3915.38,4248.21,4629.74,4378.97,4591.28,1674,1682,1.576,0,0,0,0,
103,4044.1,4175.9,4092.31,3867.18,4453.85,4226.67,4602.56,4545.13,4318.97,3916.92,4236.41,4637.44,4391.79,4595.9,1674,1684,1.584,0,0,0,0,
104,4046.15,4183.08,4097.44,3869.74,4456.41,4230.77,4602.05,4543.08,4313.85,3920.51,4234.36,4640.51,4382.56,4594.87,1677,1682,1.632,0,0,0,0,
105,4029.23,4176.92,4089.74,3861.03,4452.82,4233.33,4603.08,4545.64,4314.87,3918.46,4238.46,4635.9,4362.56,4586.67,1678,1676,1.639,0,0,0,0,
106,4021.03,4171.28,4082.05,3857.95,4452.82,4232.31,4602.05,4547.69,4322.05,3914.87,4234.87,4637.95,4362.05,4582.56,1679,1672,1.643,0,0,0,0,
109,3994.36,4165.13,4084.1,3854.36,4452.31,4231.79,4601.03,4545.13,4320,3920.51,4229.74,4626.15,4371.79,4570.77,1682,1675,1.643,0,0,0,0,
110,3993.33,4165.64,4074.87,3855.9,4450.26,4231.79,4599.49,4544.1,4318.97,3910.77,4228.72,4624.62,4364.1,4563.59,1681,1678,1.65,0,0,0,0,
111,4004.1,4175.9,4073.85,3856.41,4452.31,4235.38,4601.03,4548.21,4322.56,3922.05,4235.9,4636.92,4378.46,4574.36,1682,1676,1.654,0,0,0,0,
112,4005.64,4176.41,4082.56,3856.92,4458.97,4237.95,4608.21,4556.41,4328.21,3926.15,4235.9,4641.54,4391.28,4586.15,1681,1671,1.661,0,0,0,0,
113,4002.05,4174.36,4085.64,3856.92,4464.1,4243.59,4611.28,4558.46,4328.21,3916.92,4233.33,4633.33,4381.03,4577.95,1681,1667,1.663,0,0,0,0,
114,4001.03,4176.41,4078.46,3851.79,4458.97,4247.18,4608.21,4551.79,4325.64,3913.33,4233.85,4628.21,4368.72,4565.64,1679,1664,1.671,0,0,0,0,
115,4003.59,4175.38,4077.44,3844.1,4446.67,4240,4605.64,4547.18,4323.59,3916.41,4230.26,4631.28,4371.28,4567.18,1678,1666,1.678,0,0,0,0,
116,4005.64,4174.36,4084.1,3846.15,4438.97,4232.82,4607.69,4548.72,4322.05,3921.03,4237.44,4638.46,4378.46,4578.46,1679,1669,1.686,0,0,0,0,
117,4011.79,4175.9,4093.85,3854.87,4435.38,4233.33,4608.21,4550.26,4325.13,3918.46,4244.1,4644.1,4383.08,4586.15,1677,1672,1.698,0,0,0,0,
118,4019.49,4177.95,4097.44,3854.36,4433.33,4234.36,4607.18,4553.85,4331.28,3914.87,4238.46,4643.59,4387.69,4587.18,1677,1672,1.702,0,0,0,0,
119,4024.1,4178.97,4099.49,3850.77,4433.85,4235.9,4609.23,4564.1,4336.92,3926.15,4240,4644.62,4390.77,4589.74,1674,1670,1.709,0,0,0,0,
120,4020,4177.95,4099.49,3849.74,4434.36,4240.51,4609.23,4560.51,4332.82,3929.74,4244.62,4644.62,4387.18,4590.26,1674,1668,1.717,0,0,0,0,
121,4008.21,4168.72,4091.79,3845.13,4435.38,4237.95,4602.56,4545.13,4321.54,3915.9,4234.87,4634.87,4375.38,4582.05,1670,1660,1.726,0,0,0,0,
122,4006.67,4163.08,4089.23,3838.97,4434.87,4230.77,4600,4545.13,4321.54,3913.33,4229.74,4631.79,4373.85,4576.92,1669,1653,1.733,0,0,0,0,
123,4018.46,4173.85,4095.9,3842.05,4432.82,4232.82,4603.59,4552.31,4324.62,3918.97,4235.9,4636.92,4384.1,4583.59,1668,1646,1.74,0,0,0,0,
124,4029.74,4191.28,4096.41,3849.74,4430.77,4237.95,4601.54,4546.67,4316.92,3911.79,4230.77,4631.79,4381.54,4585.13,1666,1639,1.748,0,0,0,0,
125,4036.41,4204.1,4093.33,3853.85,4434.36,4237.95,4600.51,4547.69,4320,3909.74,4226.67,4627.18,4378.97,4580.51,1664,1634,1.756,0,0,0,0,
126,4047.18,4204.62,4102.56,3854.87,4438.46,4234.87,4607.18,4557.44,4333.85,3920.51,4231.79,4632.82,4391.28,4586.67,1664,1629,1.764,0,0,0,0,
127,4054.87,4202.05,4106.67,3853.85,4434.87,4231.79,4606.15,4551.79,4329.74,3923.08,4232.31,4636.41,4399.49,4597.95,1662,1627,1.772,0,0,0,0,
128,4050.26,4202.05,4101.03,3855.9,4428.72,4231.28,4600.51,4544.1,4320,3917.95,4234.36,4635.9,4397.44,4597.44,1662,1624,1.78,0,0,0,0,
0,4046.67,4201.54,4105.13,3855.9,4425.64,4232.82,4603.59,4550.77,4325.13,3915.9,4235.38,4635.38,4395.9,4588.72,1659,1627,1.788,0,0,0,0,
1,4047.69,4198.97,4105.13,3848.72,4428.72,4231.79,4604.62,4549.74,4327.69,3915.38,4232.82,4631.79,4397.44,4584.1,1658,1630,1.795,0,0,0,0,
2,4051.28,4194.87,4095.9,3844.1,4430.26,4230.26,4600,4542.05,4315.9,3914.87,4231.79,4632.31,4401.54,4584.62,1655,1633,1.803,0,0,0,0,
3,4051.28,4190.77,4093.85,3843.59,4427.18,4230.26,4600.51,4543.08,4309.23,3913.33,4231.79,4632.31,4402.05,4583.08,1656,1633,1.811,0,0,0,0,
4,4043.59,4187.69,4095.38,3841.03,4423.59,4226.15,4602.05,4544.62,4315.9,3909.23,4228.72,4626.67,4394.87,4576.41,1656,1629,1.819,0,0,0,0,
5,4039.49,4184.1,4092.82,3838.97,4420.51,4215.38,4598.46,4542.05,4314.36,3901.54,4228.72,4626.15,4393.85,4574.87,1656,1629,1.827,0,0,0,0,
6,4046.15,4176.92,4095.9,3841.03,4421.03,4215.9,4602.05,4548.21,4312.31,3904.1,4232.82,4631.79,4408.21,4581.03,1657,1626,1.834,0,0,0,0,
7,4050.26,4177.44,4102.05,3842.05,4417.95,4227.18,4609.23,4559.49,4326.67,3920.51,4235.9,4634.36,4415.38,4581.03,1659,1628,1.842,0,0,0,0,
8,4041.54,4180.51,4098.97,3841.03,4412.82,4229.74,4607.18,4563.08,4331.28,3921.54,4232.31,4630.26,4402.56,4571.79,1661,1629,1.85,0,0,0,0,
9,4038.46,4174.87,4094.36,3837.44,4411.79,4228.72,4606.15,4558.46,4319.49,3903.59,4221.54,4623.59,4393.85,4569.23,1662,1636,1.858,0,0,0,0,
10,4046.67,4174.87,4096.92,3835.9,4409.23,4230.26,4609.74,4547.18,4314.36,3892.31,4221.54,4617.95,4395.38,4570.26,1665,1642,1.867,0,0,0,0,
11,4049.23,4179.49,4094.36,3835.9,4407.18,4224.62,4606.67,4536.41,4309.23,3890.26,4227.18,4614.36,4393.33,4567.18,1667,1650,1.873,0,0,0,0,
12,4049.23,4176.41,4088.72,3836.92,4409.74,4221.03,4598.97,4531.79,4296.92,3889.23,4222.05,4612.31,4391.28,4569.23,1671,1657,1.881,0,0,0,0,
13,4054.87,4176.41,4094.87,3842.56,4411.28,4228.21,4600,4533.85,4297.95,3896.92,4222.56,4615.9,4398.97,4573.85,1672,1666,1.889,0,0,0,0,
14,4058.97,4187.18,4102.05,3846.67,4411.28,4231.28,4602.05,4534.87,4306.15,3903.59,4232.82,4621.03,4408.72,4572.31,1675,1675,1.897,0,0,0,0,
15,4056.41,4188.21,4102.56,3848.21,4409.23,4226.15,4596.41,4527.69,4301.54,3898.97,4231.79,4621.03,4408.72,4569.74,1678,1682,1.905,0,0,0,0,
16,4058.46,4181.54,4102.56,3846.15,4408.21,4229.23,4595.9,4528.72,4301.54,3912.31,4229.74,4626.67,4415.9,4572.82,1679,1690,1.919,0,0,0,0,
17,4066.67,4184.1,4103.59,3845.13,4412.82,4233.85,4600.51,4539.49,4310.77,3932.31,4235.9,4633.33,4429.74,4576.41,1683,1696,1.921,0,0,0,0,
18,4072.82,4192.82,4107.69,3849.74,4414.87,4232.31,4601.03,4538.97,4311.28,3927.18,4235.9,4632.31,4430.26,4580,1684,1700,1.928,0,0,0,0,
19,4070.26,4196.92,4115.38,3854.87,4410.77,4232.82,4599.49,4538.97,4310.77,3917.44,4231.28,4632.82,4420.51,4583.08,1685,1703,1.937,0,0,0,0,
20,4063.59,4189.74,4116.41,3850.77,4407.69,4234.36,4601.54,4548.21,4313.85,3915.9,4235.9,4637.44,4418.46,4575.38,1686,1710,1.947,0,0,0,0,
21,4061.03,4183.08,4112.31,3842.56,4405.13,4232.82,4606.67,4553.85,4313.33,3911.79,4240.51,4636.92,4420,4566.15,1688,1716,1.952,0,0,0,0,
22,4067.18,4185.64,4112.82,3838.97,4402.05,4231.28,4608.21,4555.38,4314.87,3911.79,4242.05,4636.41,4420,4571.79,1688,1723,1.959,0,0,0,0,
23,4074.36,4187.18,4109.74,3838.46,4401.03,4232.31,4605.13,4552.31,4314.36,3911.28,4240,4636.41,4423.08,4572.31,1690,1727,1.974,0,0,0,0,
24,4066.67,4180,4101.54,3840,4400.51,4233.85,4602.05,4542.56,4305.13,3907.18,4235.38,4628.72,4419.49,4555.38,1690,1727,1.975,0,0,0,0,
25,4058.97,4180.51,4101.54,3841.03,4401.54,4231.28,4599.49,4534.87,4296.41,3908.21,4239.49,4623.08,4414.87,4536.92,1691,1726,1.983,0,0,0,0,
26,4060,4179.49,4104.1,3835.38,4403.59,4231.28,4604.1,4540,4300.51,3909.74,4243.59,4621.54,4417.95,4520.51,1691,1723,1.991,0,0,0,0,
27,4057.95,4168.21,4103.59,3828.72,4403.59,4236.41,4612.82,4553.33,4312.31,3910.26,4240,4619.49,4420.51,4507.18,1690,1724,1.999,0,0,0,0,
28,4056.92,4169.23,4107.18,3831.79,4400.51,4238.97,4611.79,4557.44,4317.44,3919.49,4240,4621.54,4418.46,4503.08,1692,1723,2.006,0,0,0,0,
29,4068.72,4184.62,4108.72,3840,4397.95,4229.74,4598.46,4541.03,4306.67,3918.97,4246.15,4625.13,4418.46,4505.13,1691,1725,2.014,0,0,0,0,
30,4078.46,4193.85,4104.62,3846.15,4400,4221.54,4590.26,4525.13,4292.82,3907.69,4248.72,4623.08,4418.46,4506.67,1691,1727,2.022,0,0,0,0,
31,4076.92,4196.41,4108.72,3850.77,4405.13,4221.54,4587.69,4521.54,4285.13,3900.51,4245.64,4615.9,4411.79,4506.67,1691,1729,2.03,0,0,0,0,
32,4081.54,4200.51,4114.36,3850.26,4406.67,4219.49,4583.59,4516.92,4282.05,3899.49,4245.13,4615.38,4409.74,4507.18,1691,1731,2.038,0,0,0,0,
33,4085.13,4195.9,4107.18,3845.13,4406.15,4221.03,4583.08,4515.9,4284.62,3903.08,4246.15,4620.51,4410.26,4507.18,1691,1733,2.046,0,0,0,0,
34,4076.41,4185.64,4104.62,3843.59,4406.15,4224.1,4588.72,4519.49,4285.13,3904.62,4247.69,4621.03,4410.77,4508.21,1691,1734,2.053,0,0,0,0,
35,4068.72,4185.13,4113.85,3843.59,4402.05,4220.51,4592.31,4526.15,4290.77,3906.67,4247.18,4618.97,4413.85,4507.69,1692,1736,2.061,0,0,0,0,
36,4070.26,4186.15,4115.38,3840,4397.44,4215.9,4590.77,4535.9,4302.56,3917.44,4252.82,4621.03,4413.85,4504.62,1693,1743,2.069,0,0,0,0,
37,4070.77,4180,4108.72,3835.38,4396.92,4214.87,4587.18,4533.33,4296.41,3920.51,4268.21,4626.15,4412.31,4501.03,1695,1747,2.077,0,0,0,0,
38,4064.1,4173.33,4107.18,3835.38,4395.9,4214.36,4588.21,4527.18,4285.13,3913.85,4269.74,4626.67,4412.31,4504.1,1696,1756,2.085,0,0,0,0,
39,4060,4176.92,4108.72,3838.46,4390.77,4213.85,4589.23,4534.87,4294.36,3912.31,4264.1,4625.13,4406.67,4504.62,1698,1762,2.092,0,0,0,0,
40,4056.41,4175.9,4102.05,3837.44,4390.77,4214.87,4586.67,4535.38,4297.95,3906.15,4266.67,4620.51,4400,4496.41,1700,1768,2.1,0,0,0,0,
41,4049.74,4167.18,4094.87,3833.33,4395.38,4213.85,4584.62,4523.08,4282.56,3895.9,4266.15,4617.44,4405.64,4493.33,1702,1773,2.109,0,0,0,0,
42,4047.69,4168.21,4095.9,3833.33,4397.44,4216.92,4589.23,4528.21,4286.15,3905.13,4262.56,4614.36,4411.28,4495.9,1704,1775,2.116,0,0,0,0,
43,4043.59,4173.33,4092.82,3831.28,4395.38,4221.03,4593.33,4544.62,4306.15,3916.92,4263.08,4607.18,4408.21,4491.28,1707,1779,2.124,0,0,0,0,
44,4033.85,4165.64,4086.15,3825.13,4394.87,4216.92,4590.26,4548.72,4308.72,3906.67,4257.44,4600,4404.1,4483.59,1709,1782,2.133,0,0,0,0,
45,4028.21,4156.41,4087.18,3824.62,4395.9,4215.38,4585.64,4544.1,4301.03,3898.97,4247.69,4592.31,4396.41,4475.38,1712,1785,2.14,0,0,0,0,
46,4023.08,4158.46,4089.23,3830.26,4396.92,4223.59,4586.67,4539.49,4303.59,3907.69,4247.18,4587.18,4385.64,4465.64,1715,1787,2.153,0,0,0,0,
47,4020.51,4159.49,4087.18,3830.77,4396.41,4222.56,4588.21,4535.38,4304.1,3905.64,4248.72,4587.69,4380.51,4459.49,1720,1787,2.156,0,0,0,0,
48,4027.69,4157.44,4092.31,3829.23,4394.36,4215.9,4587.18,4528.21,4290.77,3899.49,4248.21,4591.79,4379.49,4464.1,1721,1788,2.163,0,0,0,0,
49,4030.77,4164.1,4100.51,3834.36,4393.85,4213.33,4584.1,4518.46,4275.38,3903.59,4245.64,4594.36,4376.92,4467.18,1722,1785,2.171,0,0,0,0,
50,4028.72,4173.85,4100,3840,4394.87,4209.23,4583.08,4516.41,4271.28,3898.97,4246.15,4593.85,4373.33,4458.97,1721,1782,2.179,0,0,0,0,
51,4029.74,4170.77,4095.9,3836.92,4393.33,4208.72,4585.13,4522.05,4272.82,3885.13,4247.18,4594.36,4374.87,4452.82,1721,1777,2.186,0,0,0,0,
52,4025.64,4161.54,4095.9,3835.38,4391.79,4210.77,4587.18,4521.54,4270.77,3887.18,4237.44,4596.41,4373.33,4454.87,1718,1772,2.194,0,0,0,0,
53,4022.05,4163.08,4101.03,3839.49,4391.79,4205.64,4582.56,4513.33,4261.03,3889.23,4235.9,4598.97,4361.03,4452.82,1716,1766,2.202,0,0,0,0,
54,4027.18,4168.72,4107.18,3844.62,4391.79,4197.44,4573.33,4501.03,4243.08,3874.36,4248.21,4599.49,4359.49,4454.36,1711,1761,2.211,0,0,0,0,
55,4034.36,4170.77,4112.82,3844.1,4391.79,4194.87,4568.21,4492.82,4235.38,3872.31,4248.72,4605.64,4378.46,4468.21,1710,1758,2.218,0,0,0,0,
56,4043.08,4173.33,4117.95,3840,4395.9,4194.36,4568.72,4496.41,4247.69,3883.59,4242.56,4614.87,4392.31,4479.49,1706,1750,2.226,0,0,0,0,
57,4044.62,4177.44,4121.03,3843.59,4401.54,4196.92,4569.74,4503.08,4255.38,3894.36,4248.72,4617.95,4388.21,4479.49,1702,1745,2.233,0,0,0,0,
58,4037.95,4178.97,4118.97,3847.69,4406.15,4202.05,4570.26,4508.21,4254.87,3897.44,4251.79,4617.44,4383.08,4478.46,1702,1734,2.241,0,0,0,0,
59,4039.49,4175.38,4117.44,3842.56,4405.13,4203.59,4573.33,4510.77,4258.46,3890.77,4247.18,4615.9,4380.51,4476.92,1699,1723,2.25,0,0,0,0,
60,4044.62,4170.26,4116.92,3838.46,4401.03,4205.13,4578.46,4512.82,4267.18,3895.9,4250.26,4614.36,4384.1,4477.95,1698,1716,2.257,0,0,0,0,
61,4043.08,4172.82,4118.46,3844.62,4402.56,4202.56,4577.95,4517.95,4274.36,3904.62,4251.28,4610.26,4383.59,4477.44,1696,1713,2.265,0,0,0,0,
62,4038.97,4178.46,4118.97,3845.64,4404.62,4198.97,4573.85,4517.95,4271.79,3895.38,4247.18,4606.15,4371.28,4469.74,1693,1715,2.272,0,0,0,0,
63,4038.97,4178.46,4117.95,3843.08,4401.54,4200,4571.79,4510.77,4264.1,3884.1,4249.23,4607.69,4371.28,4472.31,1691,1717,2.28,0,0,0,0,
64,4046.15,4171.79,4120.51,3845.64,4402.56,4200,4572.31,4512.31,4265.13,3893.33,4253.33,4611.28,4385.64,4490.26,1690,1717,2.289,0,0,0,0,
65,4063.08,4172.82,4129.74,3844.62,4408.21,4202.05,4577.95,4525.13,4280.51,3909.23,4257.44,4616.92,4394.36,4508.21,1687,1714,2.296,0,0,0,0,
66,4077.95,4178.97,4140,3846.15,4406.67,4205.13,4581.54,4526.15,4285.64,3911.28,4266.15,4624.1,4395.38,4522.05,1685,1709,2.304,0,0,0,0,
67,4094.36,4182.56,4144.1,3850.77,4407.18,4202.05,4575.38,4518.46,4278.97,3913.33,4277.44,4633.85,4405.64,4544.62,1684,1701,2.311,0,0,0,0,
68,4113.85,4189.23,4155.9,3850.77,4410.77,4200.51,4576.41,4522.05,4282.56,3929.74,4284.62,4647.69,4427.18,4575.38,1681,1700,2.319,0,0,0,0,
69,4106.67,4185.64,4169.23,3844.1,4406.67,4205.13,4585.13,4526.67,4285.64,3934.87,4284.62,4653.33,4436.41,4589.74,1680,1699,2.327,0,0,0,0,
70,4092.82,4172.82,4164.1,3838.46,4407.69,4206.15,4577.44,4517.95,4274.87,3917.44,4275.38,4647.69,4424.62,4581.54,1677,1700,2.335,0,0,0,0,
71,4106.67,4168.72,4155.9,3843.59,4415.9,4202.05,4565.64,4507.69,4263.08,3902.56,4272.82,4649.23,4414.87,4573.33,1676,1700,2.343,0,0,0,0,
72,4111.79,4172.31,4155.38,3851.28,4416.41,4199.49,4574.36,4511.28,4264.62,3899.49,4276.41,4655.38,4418.97,4573.85,1673,1699,2.351,0,0,0,0,
73,4087.18,4170.77,4152.31,3849.23,4412.31,4200,4585.64,4525.64,4278.46,3908.72,4275.9,4656.41,4425.13,4574.36,1671,1697,2.358,0,0,0,0,
74,4073.85,4169.23,4152.82,3844.62,4412.82,4205.64,4586.15,4536.92,4294.87,3925.64,4278.46,4657.44,4428.21,4571.79,1670,1693,2.366,0,0,0,0,
75,4071.79,4170.77,4155.9,3841.54,4415.9,4214.87,4583.59,4531.28,4298.46,3930.77,4278.46,4656.92,4425.64,4558.97,1670,1691,2.374,0,0,0,0,
76,4057.95,4166.67,4151.79,3837.95,4418.46,4218.46,4583.59,4523.08,4291.79,3926.15,4270.26,4649.74,4418.46,4541.54,1668,1689,2.382,0,0,0,0,
77,4047.69,4163.59,4144.1,3834.87,4417.95,4212.82,4587.18,4530.26,4294.36,3928.21,4267.18,4645.13,4418.97,4533.33,1667,1693,2.39,0,0,0,0,
78,4040.51,4157.95,4137.95,3830.77,4414.36,4204.62,4587.18,4533.85,4302.05,3923.08,4266.15,4638.46,4415.9,4522.56,1667,1694,2.397,0,0,0,0,
79,4027.18,4148.72,4136.41,3827.18,4415.38,4204.62,4584.62,4527.69,4295.9,3909.74,4259.49,4628.72,4402.56,4504.62,1666,1697,2.405,0,0,0,0,
80,4017.95,4146.67,4138.97,3832.31,4417.44,4211.79,4590.26,4532.82,4289.74,3913.85,4259.49,4628.72,4398.97,4498.46,1666,1695,2.413,0,0,0,0,
81,4012.31,4151.79,4134.87,3832.82,4416.41,4216.41,4597.95,4541.54,4296.41,3922.05,4258.97,4628.72,4400.51,4497.95,1665,1690,2.421,0,0,0,0,
82,4003.59,4149.74,4126.15,3823.59,4415.9,4215.9,4598.97,4540.51,4300.51,3915.9,4249.23,4618.97,4387.18,4484.62,1667,1685,2.429,0,0,0,0,
83,3995.9,4140,4120,3817.95,4416.92,4216.41,4598.46,4541.54,4297.95,3909.74,4246.15,4614.87,4378.97,4472.31,1666,1678,2.437,0,0,0,0,
84,3988.72,4140,4120,3816.92,4419.49,4217.44,4597.44,4542.05,4295.9,3913.33,4249.74,4618.46,4388.21,4471.28,1666,1673,2.444,0,0,0,0,
85,3985.13,4150.26,4124.62,3822.56,4424.1,4215.9,4595.38,4536.92,4296.92,3923.59,4251.79,4618.46,4390.26,4473.33,1667,1669,2.452,0,0,0,0,
86,3989.23,4156.92,4123.08,3829.23,4425.13,4214.36,4596.92,4542.05,4304.1,3929.23,4251.79,4617.95,4385.64,4473.85,1667,1666,2.46,0,0,0,0,
87,3990.26,4153.85,4116.92,3826.15,4422.56,4214.36,4598.97,4550.26,4311.79,3926.67,4251.28,4617.95,4390.77,4472.31,1668,1664,2.468,0,0,0,0,
88,3987.69,4151.79,4118.97,3823.08,4427.69,4216.92,4595.9,4545.13,4307.18,3925.64,4253.33,4617.44,4395.9,4473.33,1668,1665,2.476,0,0,0,0,
89,3992.31,4157.95,4123.59,3830.77,4435.38,4216.92,4594.87,4542.05,4303.08,3929.23,4254.36,4619.49,4394.87,4476.41,1669,1666,2.483,0,0,0,0,
90,3996.92,4164.62,4122.05,3836.41,4431.28,4217.44,4598.46,4548.21,4307.18,3923.59,4248.72,4618.97,4393.85,4471.79,1668,1670,2.492,0,0,0,0,
91,3991.28,4163.59,4120,3830.26,4428.72,4218.97,4600,4545.13,4306.15,3915.38,4248.72,4614.36,4392.82,4461.03,1671,1675,2.499,0,0,0,0,
92,3987.18,4163.08,4121.03,3825.13,4434.87,4217.95,4592.82,4536.41,4305.13,3917.44,4253.85,4615.9,4391.79,4459.49,1670,1681,2.507,0,0,0,0,
93,3988.21,4166.15,4123.08,3829.23,4437.44,4216.41,4586.15,4536.92,4311.79,3921.03,4252.31,4618.46,4390.77,4462.05,1671,1686,2.515,0,0,0,0,
94,3982.05,4160,4122.05,3828.21,4430.77,4215.38,4587.18,4536.92,4311.79,3920.51,4247.18,4611.79,4388.72,4456.92,1672,1686,2.523,0,0,0,0,
95,3973.33,4151.79,4116.92,3820.51,4425.13,4214.36,4588.21,4533.33,4306.15,3921.03,4246.67,4604.1,4387.69,4449.23,1672,1687,2.531,0,0,0,0,
96,3970.77,4151.79,4114.36,3818.46,4428.72,4215.38,4588.72,4535.9,4310.26,3924.1,4249.23,4604.1,4385.13,4445.13,1673,1684,2.538,0,0,0,0,
97,3974.36,4155.9,4118.46,3822.56,4432.82,4216.92,4590.26,4540,4314.36,3927.69,4246.15,4606.67,4382.56,4447.18,1674,1682,2.546,0,0,0,0,
98,3983.08,4164.1,4126.67,3825.13,4433.85,4215.38,4588.72,4536.41,4303.59,3926.15,4248.72,4613.85,4394.36,4455.38,1674,1680,2.554,0,0,0,0,
99,3990.77,4172.82,4130.77,3832.82,4440.51,4215.9,4583.08,4526.15,4287.18,3919.49,4257.44,4618.46,4403.59,4463.59,1674,1682,2.562,0,0,0,0,
100,3988.21,4171.79,4126.15,3838.97,4444.1,4214.36,4580.51,4521.03,4278.97,3915.38,4257.44,4608.72,4394.36,4458.97,1675,1683,2.571,0,0,0,0,
101,3982.05,4167.18,4121.54,3832.82,4434.87,4206.67,4581.54,4522.56,4279.49,3913.33,4247.18,4597.95,4393.33,4446.15,1676,1688,2.577,0,0,0,0,
102,3989.74,4171.28,4123.08,3829.74,4429.74,4206.15,4584.62,4526.15,4283.08,3907.69,4244.62,4603.59,4405.13,4448.72,1675,1689,2.585,0,0,0,0,
103,4002.56,4177.95,4130.26,3836.41,4436.92,4211.28,4586.67,4532.31,4283.59,3908.21,4253.85,4614.87,4406.15,4463.08,1676,1692,2.593,0,0,0,0,
104,4001.03,4174.87,4132.82,3837.44,4441.54,4213.85,4587.18,4539.49,4285.64,3916.41,4254.87,4617.44,4400,4465.64,1676,1693,2.601,0,0,0,0,
105,3991.28,4170.26,4127.69,3834.36,4437.44,4214.87,4588.72,4538.97,4288.72,3913.85,4248.72,4614.36,4396.92,4458.46,1675,1694,2.609,0,0,0,0,
106,3986.15,4171.28,4122.56,3831.79,4429.74,4215.38,4588.72,4531.28,4284.62,3906.15,4246.67,4610.26,4394.87,4454.87,1675,1695,2.616,0,0,0,0,
107,3977.95,4164.1,4116.41,3825.64,4423.08,4216.41,4588.21,4530.77,4284.62,3913.85,4249.23,4603.08,4390.77,4448.72,1674,1697,2.624,0,0,0,0,
108,3969.74,4150.77,4109.74,3821.03,4427.18,4215.9,4587.69,4533.33,4289.74,3920,4245.13,4598.46,4384.62,4442.05,1676,1695,2.632,0,0,0,0,
109,3973.85,4155.9,4110.77,3824.1,4431.79,4211.28,4586.15,4529.74,4285.64,3909.23,4235.38,4598.97,4380.51,4444.1,1675,1696,2.64,0,0,0,0,
110,3974.36,4168.72,4116.92,3821.54,4424.62,4210.26,4586.67,4529.23,4281.54,3901.54,4238.97,4600.51,4379.49,4446.15,1677,1695,2.652,0,0,0,0,
111,3970.26,4165.13,4115.38,3820,4418.97,4217.95,4587.69,4537.44,4287.69,3900,4245.13,4601.03,4379.49,4442.05,1676,1693,2.656,0,0,0,0,
112,3972.82,4161.03,4108.21,3830.26,4423.08,4213.85,4586.15,4541.54,4289.23,3903.08,4246.67,4600.51,4383.08,4443.08,1676,1691,2.666,0,0,0,0,
113,3974.36,4162.05,4110.77,3828.72,4422.05,4200.51,4584.1,4532.82,4284.1,3908.21,4248.21,4602.05,4390.77,4456.41,1677,1687,2.671,0,0,0,0,
114,3969.23,4162.05,4113.85,3814.87,4415.9,4200,4584.1,4527.18,4283.59,3906.67,4248.72,4604.1,4386.67,4459.49,1677,1687,2.679,0,0,0,0,
115,3972.82,4165.13,4110.26,3823.08,4417.95,4206.15,4584.1,4530.77,4286.67,3907.69,4244.62,4602.05,4372.82,4445.64,1678,1685,2.687,0,0,0,0,
116,3977.44,4172.31,4105.13,3835.9,4423.59,4204.1,4585.64,4538.46,4291.28,3916.41,4246.67,4598.46,4375.9,4440,1679,1686,2.695,0,0,0,0,
117,3966.15,4170.77,4104.62,3825.64,4424.62,4208.21,4587.69,4541.54,4295.9,3914.87,4249.23,4600.51,4386.15,4445.64,1679,1688,2.703,0,0,0,0,
118,3958.46,4164.1,4112.31,3822.05,4420,4213.33,4586.67,4537.44,4296.92,3909.23,4244.1,4603.08,4382.56,4450.26,1679,1691,2.711,0,0,0,0,
119,3967.69,4167.18,4117.44,3831.79,4415.9,4205.64,4583.59,4536.41,4295.38,3915.9,4243.08,4600,4375.9,4450.26,1680,1694,2.718,0,0,0,0,
120,3973.85,4170.77,4111.79,3827.69,4418.46,4199.49,4583.59,4537.44,4290.77,3913.33,4247.69,4597.95,4379.49,4448.21,1679,1697,2.726,0,0,0,0,
121,3971.79,4169.74,4108.21,3823.08,4416.92,4203.08,4584.62,4534.36,4285.64,3905.64,4246.67,4597.95,4380,4444.62,1682,1699,2.734,0,0,0,0,
122,3972.82,4168.72,4115.38,3828.21,4410.77,4204.1,4585.13,4529.74,4284.1,3912.31,4238.97,4597.95,4381.54,4440.51,1682,1698,2.742,0,0,0,0,
123,3974.36,4168.21,4115.9,3827.69,4410.26,4197.44,4585.13,4529.23,4281.54,3909.74,4232.82,4596.92,4382.05,4435.9,1684,1698,2.75,0,0,0,0,
124,3967.69,4164.62,4109.23,3823.08,4412.82,4199.49,4584.62,4534.87,4281.03,3895.38,4232.31,4591.79,4370.26,4432.31,1685,1695,2.758,0,0,0,0,
125,3957.44,4159.49,4105.64,3820.51,4409.74,4209.23,4586.15,4539.49,4288.21,3896.92,4232.31,4586.15,4362.05,4428.21,1686,1697,2.765,0,0,0,0,
126,3952.31,4154.36,4104.1,3821.54,4410.26,4208.21,4589.23,4538.46,4291.28,3903.08,4230.26,4583.59,4363.08,4424.62,1688,1697,2.773,0,0,0,0,
127,3956.92,4154.36,4104.62,3827.18,4415.9,4204.62,4588.21,4537.95,4288.72,3900,4229.74,4585.64,4363.08,4429.23,1688,1699,2.781,0,0,0,0,
128,3961.54,4162.05,4107.18,3824.1,4414.36,4213.33,4588.72,4544.1,4290.77,3900.51,4230.77,4586.67,4362.05,4429.74,1691,1700,2.79,0,0,0,0,
0,3957.44,4168.21,4110.26,3821.54,4410.77,4215.9,4594.87,4547.18,4291.79,3902.56,4232.31,4584.1,4363.08,4424.1,1692,1701,2.796,0,0,0,0,
1,3961.54,4169.74,4116.92,3831.79,4411.28,4202.05,4592.31,4541.54,4291.79,3905.13,4234.36,4589.74,4367.69,4432.31,1692,1700,2.804,0,0,0,0,
2,3970.77,4169.23,4120,3833.85,4409.74,4197.44,4583.59,4537.44,4295.38,3911.79,4235.38,4601.03,4369.74,4442.05,1693,1698,2.813,0,0,0,0,
3,3967.69,4169.23,4113.33,3826.15,4404.62,4203.08,4582.56,4539.49,4292.82,3914.87,4234.36,4596.92,4368.21,4436.41,1695,1698,2.82,0,0,0,0,
4,3962.05,4170.77,4109.23,3829.23,4403.59,4201.03,4584.62,4539.49,4286.67,3913.85,4232.31,4587.18,4366.67,4429.74,1695,1697,2.828,0,0,0,0,
5,3955.9,4164.62,4110.26,3832.31,4405.64,4198.46,4586.15,4538.97,4289.23,3915.38,4232.31,4593.85,4365.64,4432.82,1696,1699,2.836,0,0,0,0,
6,3949.23,4155.38,4108.21,3825.13,4404.62,4199.49,4588.21,4540.51,4293.33,3914.36,4234.87,4599.49,4363.08,4431.79,1697,1699,2.844,0,0,0,0,
7,3950.77,4154.87,4102.05,3822.05,4405.64,4201.03,4588.21,4540.51,4290.77,3906.67,4232.31,4590.26,4359.49,4422.05,1697,1701,2.851,0,0,0,0,
8,3947.18,4160.51,4096.41,3823.08,4408.72,4203.08,4587.69,4538.97,4289.74,3901.03,4228.72,4583.59,4355.38,4411.79,1698,1700,2.859,0,0,0,0,
9,3933.33,4155.9,4093.33,3821.03,4407.18,4202.56,4588.21,4536.41,4288.72,3900,4230.77,4583.59,4353.85,4410.77,1698,1701,2.867,0,0,0,0,
10,3930.77,4150.26,4095.38,3820,4406.15,4203.59,4587.18,4536.41,4287.18,3906.67,4227.18,4583.59,4358.46,4412.82,1699,1703,2.875,0,0,0,0,
11,3943.08,4160,4097.95,3828.21,4408.72,4204.62,4585.13,4537.44,4287.18,3914.36,4216.92,4583.08,4361.54,4412.82,1698,1703,2.883,0,0,0,0,
12,3951.79,4171.28,4097.95,3837.44,4410.77,4201.54,4585.13,4537.95,4289.74,3916.92,4215.38,4586.15,4362.56,4419.49,1700,1703,2.89,0,0,0,0,
13,3950.77,4172.31,4099.49,3833.33,4412.31,4198.97,4584.1,4537.95,4295.38,3916.41,4218.97,4590.26,4363.59,4429.23,1699,1702,2.898,0,0,0,0,
14,3947.18,4170.26,4104.1,3827.18,4415.9,4199.49,4583.08,4540,4296.41,3918.97,4217.95,4590.77,4361.54,4427.18,1701,1701,2.906,0,0,0,0,
15,3945.64,4171.28,4103.59,3830.26,4420.51,4201.54,4585.13,4541.54,4293.85,3921.54,4222.05,4592.82,4361.03,4424.1,1700,1699,2.915,0,0,0,0,
16,3947.69,4169.23,4101.03,3830.26,4417.44,4201.54,4587.18,4540.51,4296.41,3915.9,4231.28,4596.92,4362.05,4428.21,1700,1700,2.922,0,0,0,0,
17,3951.28,4165.64,4107.69,3822.05,4409.23,4200.51,4585.64,4541.03,4301.03,3914.87,4233.85,4598.97,4361.54,4434.87,1700,1699,2.93,0,0,0,0,
18,3956.41,4169.23,4114.36,3818.46,4411.28,4202.56,4585.64,4544.1,4302.56,3924.62,4235.38,4600,4366.67,4440,1699,1701,2.937,0,0,0,0,
19,3962.56,4176.41,4111.79,3829.23,4418.97,4203.59,4586.15,4543.08,4298.46,3924.1,4235.38,4601.03,4371.28,4444.62,1700,1701,2.945,0,0,0,0,
20,3966.67,4178.97,4110.26,3836.92,4419.49,4200.51,4583.08,4536.41,4294.36,3915.38,4233.85,4597.95,4364.62,4438.97,1699,1702,2.956,0,0,0,0,
21,3968.72,4181.54,4116.92,3833.85,4418.46,4198.97,4581.54,4535.9,4294.87,3922.56,4234.87,4596.92,4359.49,4433.85,1698,1703,2.961,0,0,0,0,
22,3961.03,4184.1,4116.41,3832.31,4421.54,4198.97,4586.15,4542.05,4296.92,3932.31,4235.9,4601.54,4364.62,4437.44,1698,1703,2.969,0,0,0,0,
23,3954.36,4180,4105.13,3835.9,4425.13,4201.54,4591.28,4541.03,4294.36,3921.54,4233.33,4599.49,4366.15,4436.41,1699,1703,2.976,0,0,0,0,
24,3956.92,4177.44,4101.54,3830.77,4426.67,4210.77,4590.26,4542.56,4291.28,3909.23,4232.31,4590.77,4366.15,4428.21,1698,1704,2.984,0,0,0,0,
25,3955.9,4180.51,4106.15,3823.59,4424.62,4212.31,4590.77,4551.79,4300,3918.46,4233.33,4589.74,4372.31,4426.15,1698,1706,2.992,0,0,0,0,
26,3957.95,4183.08,4106.15,3825.13,4424.1,4208.21,4598.97,4558.46,4310.26,3929.74,4238.97,4598.46,4380,4435.38,1698,1710,3,0,0,0,0,
27,3961.54,4185.64,4107.18,3833.85,4425.64,4213.33,4603.08,4558.97,4308.72,3923.59,4248.72,4604.62,4386.67,4445.13,1698,1712,3.008,0,0,0,0,
28,3955.38,4185.64,4111.79,3834.87,4423.08,4214.36,4600.51,4558.97,4310.26,3924.1,4250.26,4605.13,4389.23,4448.21,1697,1712,3.015,0,0,0,0,
29,3945.13,4175.38,4104.62,3825.13,4417.95,4204.1,4598.97,4558.46,4312.31,3933.33,4240.51,4601.54,4380.51,4438.97,1698,1711,3.023,0,0,0,0,
30,3940,4169.23,4092.82,3819.49,4416.92,4200,4593.85,4549.23,4296.92,3923.59,4232.31,4594.87,4368.72,4427.18,1698,1710,3.031,0,0,0,0,
31,3941.54,4167.18,4096.41,3821.54,4417.44,4203.08,4588.72,4541.03,4287.18,3913.33,4234.36,4592.31,4367.18,4426.15,1699,1708,3.039,0,0,0,0,
32,3941.03,4158.46,4104.1,3819.49,4411.79,4200.51,4593.33,4543.08,4298.46,3915.38,4232.82,4591.28,4361.03,4423.08,1698,1707,3.047,0,0,0,0,
33,3938.46,4159.49,4103.59,3821.03,4410.26,4200.51,4593.33,4543.08,4293.85,3905.64,4222.05,4586.15,4347.69,4414.36,1698,1706,3.055,0,0,0,0,
34,3938.46,4174.36,4097.95,3828.72,4413.33,4199.49,4585.13,4529.23,4273.33,3891.79,4216.41,4583.59,4344.1,4408.21,1698,1704,3.062,0,0,0,0,
35,3948.21,4184.62,4095.38,3832.82,4412.31,4194.87,4583.08,4518.46,4267.18,3892.82,4217.95,4586.15,4342.56,4406.15,1698,1705,3.07,0,0,0,0,
36,3951.79,4189.74,4100,3836.41,4412.31,4198.46,4584.62,4521.03,4267.69,3893.85,4214.87,4580.51,4332.31,4396.92,1700,1703,3.078,0,0,0,0,
37,3947.69,4197.95,4104.62,3840,4415.38,4198.97,4583.08,4523.59,4271.28,3894.36,4215.38,4574.36,4323.59,4390.26,1698,1705,3.086,0,0,0,0,
38,3949.74,4199.49,4104.62,3834.36,4414.87,4187.69,4582.05,4523.08,4274.36,3894.36,4214.87,4577.44,4324.62,4393.85,1699,1705,3.095,0,0,0,0,
39,3949.74,4189.23,4102.56,3827.69,4411.79,4187.18,4580,4522.56,4269.74,3889.23,4208.21,4576.41,4325.64,4393.33,1699,1706,3.102,0,0,0,0,
40,3949.74,4183.08,4103.59,3831.28,4411.79,4198.97,4583.59,4524.62,4268.21,3892.82,4210.26,4574.87,4327.69,4391.28,1700,1706,3.11,0,0,0,0,
41,3954.87,4186.15,4101.03,3833.85,4412.82,4193.85,4585.64,4526.67,4280,3906.15,4218.46,4577.44,4329.74,4395.9,1699,1708,3.117,0,0,0,0,
42,3949.74,4185.64,4091.79,3828.72,4413.33,4184.1,4576.92,4523.59,4281.54,3903.08,4210.77,4574.87,4325.64,4393.33,1700,1709,3.125,0,0,0,0,
43,3938.46,4180,4085.64,3825.13,4411.28,4186.67,4570.77,4518.46,4264.1,3884.62,4191.79,4564.62,4319.49,4380.51,1699,1709,3.133,0,0,0,0,
44,3940.51,4179.49,4088.21,3827.69,4408.21,4188.72,4578.97,4521.54,4258.46,3875.9,4183.08,4558.46,4316.41,4379.49,1700,1710,3.141,0,0,0,0,
45,3942.56,4183.08,4090.26,3831.28,4409.23,4188.72,4586.67,4530.26,4270.26,3884.1,4190.26,4562.56,4314.87,4386.15,1700,1709,3.148,0,0,0,0,
46,3933.33,4183.08,4087.69,3832.31,4410.77,4190.26,4585.64,4537.95,4279.49,3896.41,4198.46,4568.21,4315.38,4388.21,1700,1710,3.156,0,0,0,0,
47,3938.46,4184.1,4087.69,3834.87,4410.77,4191.28,4586.67,4542.56,4281.54,3900.51,4199.49,4572.82,4321.03,4391.28,1701,1709,3.164,0,0,0,0,
48,3943.59,4184.62,4090.26,3832.31,4409.74,4191.28,4589.23,4541.54,4280.51,3892.82,4198.46,4570.77,4317.95,4390.26,1699,1709,3.172,0,0,0,0,
49,3922.05,4174.36,4088.21,3819.49,4406.67,4194.36,4587.18,4536.41,4274.87,3882.56,4198.46,4563.59,4306.67,4380,1701,1710,3.181,0,0,0,0,
50,3909.74,4170.77,4087.69,3814.87,4406.67,4200.51,4586.15,4533.85,4272.31,3886.15,4201.03,4559.49,4307.69,4374.87,1700,1709,3.188,0,0,0,0,
51,3932.82,4180.51,4089.74,3825.64,4410.77,4197.95,4588.72,4533.85,4277.44,3894.36,4207.18,4566.67,4317.95,4381.54,1701,1712,3.195,0,0,0,0,
52,3949.74,4186.67,4091.79,3833.33,4410.77,4191.28,4584.1,4527.18,4274.87,3892.82,4207.18,4573.85,4315.9,4389.23,1701,1711,3.203,0,0,0,0,
53,3941.03,4178.46,4091.28,3827.69,4403.59,4190.77,4580.51,4516.92,4262.56,3891.79,4201.54,4570.77,4310.26,4386.67,1701,1713,3.211,0,0,0,0,
54,3930.77,4169.23,4089.74,3823.59,4404.1,4191.28,4583.08,4516.41,4257.44,3891.79,4201.54,4569.23,4314.87,4382.56,1701,1713,3.219,0,0,0,0,
55,3931.79,4174.36,4091.28,3830.77,4410.26,4184.62,4579.49,4520.51,4260.51,3887.18,4206.15,4570.26,4321.54,4388.21,1701,1713,3.227,0,0,0,0,
56,3937.44,4182.05,4093.33,3833.33,4405.13,4183.08,4571.28,4517.95,4259.49,3884.1,4209.74,4566.67,4322.05,4395.38,1701,1712,3.234,0,0,0,0,
57,3945.64,4182.56,4094.36,3828.72,4400,4185.64,4569.74,4518.97,4262.56,3889.23,4213.85,4571.28,4326.15,4398.46,1700,1713,3.242,0,0,0,0,
58,3948.72,4182.05,4096.41,3828.21,4407.18,4183.59,4574.36,4529.23,4272.82,3901.03,4218.46,4583.59,4334.87,4402.56,1701,1711,3.25,0,0,0,0,
59,3947.18,4182.05,4097.44,3830.26,4411.79,4187.69,4578.46,4529.74,4274.36,3908.72,4218.46,4584.1,4334.87,4403.59,1699,1711,3.258,0,0,0,0,
60,3943.59,4182.05,4091.79,3830.77,4407.18,4192.31,4576.92,4524.1,4271.28,3900.51,4216.92,4572.82,4330.77,4400.51,1700,1710,3.266,0,0,0,0,
61,3934.36,4179.49,4090.77,3831.28,4407.69,4188.72,4579.49,4527.69,4273.85,3888.21,4211.79,4568.21,4331.28,4401.54,1698,1708,3.274,0,0,0,0,
62,3927.18,4173.33,4094.87,3831.28,4412.82,4184.62,4581.54,4530.26,4272.31,3894.36,4204.1,4571.79,4331.28,4405.64,1698,1709,3.281,0,0,0,0,
63,3927.69,4171.28,4092.31,3830.26,4410.26,4185.13,4577.95,4525.64,4269.74,3904.1,4204.62,4576.92,4328.72,4406.67,1697,1707,3.289,0,0,0,0,
64,3930.77,4178.46,4090.26,3830.77,4408.72,4186.15,4579.49,4529.74,4279.49,3902.56,4215.9,4580,4333.33,4411.28,1696,1707,3.297,0,0,0,0,
65,3932.82,4176.41,4092.31,3830.77,4410.77,4190.26,4587.69,4537.95,4282.56,3902.56,4221.03,4578.46,4342.56,4418.97,1695,1705,3.305,0,0,0,0,
66,3937.95,4167.18,4089.23,3825.64,4409.23,4194.87,4585.64,4533.85,4275.38,3903.59,4215.9,4573.85,4338.46,4417.44,1694,1705,3.313,0,0,0,0,
67,3940.51,4171.28,4088.21,3825.64,4407.18,4190.26,4582.56,4533.85,4280,3899.49,4213.33,4572.82,4331.28,4411.28,1694,1703,3.32,0,0,0,0,
68,3935.9,4174.87,4091.79,3831.79,4407.69,4183.59,4587.18,4535.9,4281.03,3897.95,4214.36,4575.38,4332.82,4408.21,1693,1703,3.328,0,0,0,0,
69,3929.74,4169.23,4091.28,3830.26,4407.18,4186.67,4585.13,4527.69,4270.77,3900.51,4214.87,4576.92,4333.85,4409.23,1694,1702,3.336,0,0,0,0,
70,3930.26,4173.33,4092.82,3826.67,4407.18,4187.18,4582.56,4529.23,4275.38,3905.13,4215.38,4581.54,4332.31,4418.46,1692,1703,3.344,0,0,0,0,
71,3936.41,4181.03,4098.46,3832.31,4406.15,4184.1,4585.64,4536.92,4286.67,3909.23,4216.41,4585.13,4338.46,4427.69,1692,1704,3.352,0,0,0,0,
72,3936.92,4177.44,4096.92,3835.38,4401.54,4185.13,4584.62,4530.77,4275.9,3907.18,4216.41,4576.92,4341.54,4417.95,1691,1705,3.36,0,0,0,0,
73,3929.74,4167.69,4090.26,3823.08,4402.05,4185.64,4575.9,4518.46,4258.46,3893.85,4213.85,4564.1,4327.18,4398.46,1691,1708,3.367,0,0,0,0,
74,3926.15,4165.13,4086.15,3818.46,4406.15,4183.08,4574.36,4520,4261.54,3882.05,4211.28,4567.18,4318.46,4403.59,1691,1707,3.375,0,0,0,0,
75,3926.67,4167.69,4089.74,3824.1,4405.64,4183.08,4582.05,4530.77,4275.38,3889.74,4216.92,4583.08,4333.33,4426.15,1690,1708,3.383,0,0,0,0,
76,3929.23,4165.13,4092.82,3824.62,4402.56,4184.62,4585.13,4535.38,4280,3906.67,4226.15,4586.15,4348.21,4437.44,1690,1709,3.391,0,0,0,0,
77,3929.23,4155.9,4089.74,3820,4400,4185.64,4584.62,4533.85,4278.46,3913.33,4229.23,4583.59,4355.9,4443.08,1689,1709,3.399,0,0,0,0,
78,3924.1,4150.26,4089.23,3819.49,4401.03,4186.67,4586.67,4535.9,4282.05,3909.23,4231.28,4594.87,4368.72,4455.38,1689,1710,3.407,0,0,0,0,
79,3927.18,4153.33,4096.41,3822.56,4403.08,4188.72,4587.69,4535.9,4284.1,3912.82,4235.38,4605.64,4376.41,4466.15,1688,1710,3.415,0,0,0,0,
80,3929.74,4147.69,4092.82,3814.36,4403.08,4190.26,4586.15,4527.69,4280.51,3917.44,4231.79,4595.38,4368.21,4461.54,1688,1709,3.422,0,0,0,0,
81,3919.49,4135.9,4080.51,3805.13,4402.05,4190.26,4585.13,4529.23,4278.46,3905.13,4227.18,4584.1,4361.03,4453.33,1686,1707,3.43,0,0,0,0,
82,3913.33,4138.46,4081.54,3813.85,4398.97,4185.64,4584.62,4538.97,4280,3897.44,4233.85,4592.82,4362.05,4456.41,1686,1707,3.438,0,0,0,0,
83,3916.92,4148.72,4087.69,3820.51,4400,4183.59,4586.67,4539.49,4288.21,3910.77,4237.95,4606.67,4366.67,4462.05,1687,1708,3.446,0,0,0,0,
84,3914.36,4150.77,4086.67,3811.79,4406.67,4187.69,4587.18,4538.46,4295.9,3922.05,4231.79,4603.59,4375.38,4458.97,1686,1708,3.454,0,0,0,0,
85,3911.79,4151.28,4084.62,3812.82,4406.67,4188.21,4585.13,4541.03,4291.79,3914.87,4230.77,4592.82,4376.92,4455.38,1686,1709,3.461,0,0,0,0,
86,3914.36,4149.23,4083.08,3823.08,4397.44,4184.62,4585.13,4538.46,4286.15,3910.26,4234.87,4592.82,4364.1,4457.44,1686,1709,3.469,0,0,0,0,
87,3912.31,4138.46,4077.95,3817.95,4397.95,4185.13,4587.69,4536.41,4286.67,3913.85,4234.36,4594.87,4361.03,4452.31,1686,1710,3.477,0,0,0,0,
88,3909.23,4137.95,4072.31,3813.33,4404.1,4188.21,4586.67,4543.59,4288.72,3908.72,4228.72,4585.13,4369.74,4448.21,1687,1708,3.485,0,0,0,0,
89,3911.79,4145.64,4072.82,3818.97,4401.54,4186.15,4585.64,4548.72,4288.21,3903.08,4229.23,4582.56,4367.69,4453.33,1685,1708,3.494,0,0,0,0,
90,3910.26,4141.54,4075.38,3814.87,4400,4184.62,4592.31,4548.21,4290.77,3910.77,4233.85,4589.74,4361.03,4449.23,1687,1708,3.5,0,0,0,0,
91,3898.46,4134.87,4073.85,3811.28,4400.51,4187.18,4597.95,4551.79,4293.85,3910.77,4226.15,4583.08,4356.92,4432.31,1686,1706,3.508,0,0,0,0,
92,3891.79,4133.33,4069.74,3815.9,4395.38,4186.15,4590.77,4549.23,4288.72,3899.49,4215.38,4569.74,4346.67,4424.62,1686,1708,3.517,0,0,0,0,
93,3900.51,4129.23,4069.74,3810.77,4393.33,4188.72,4584.62,4542.56,4287.18,3898.97,4215.38,4570.26,4340.51,4427.69,1688,1707,3.524,0,0,0,0,
94,3909.74,4129.74,4075.9,3806.15,4400,4199.49,4593.85,4547.18,4292.31,3903.59,4217.44,4575.38,4350.77,4423.59,1687,1707,3.532,0,0,0,0,
95,3910.77,4137.44,4080,3813.85,4402.56,4201.54,4596.41,4549.74,4293.33,3898.97,4218.46,4580.51,4355.38,4424.1,1689,1707,3.539,0,0,0,0,
96,3909.74,4143.08,4081.03,3818.97,4401.03,4193.33,4586.15,4538.46,4287.18,3896.41,4219.49,4584.62,4349.74,4435.9,1689,1708,3.547,0,0,0,0,
97,3911.28,4147.18,4085.64,3823.08,4406.67,4190.77,4582.56,4532.82,4283.08,3899.49,4218.46,4585.13,4352.82,4444.1,1690,1707,3.555,0,0,0,0,
98,3916.41,4150.26,4088.21,3829.74,4410.77,4196.92,4586.67,4538.97,4286.67,3897.95,4223.59,4584.62,4362.56,4445.13,1690,1708,3.563,0,0,0,0,
99,3924.1,4150.77,4084.1,3825.13,4411.79,4196.92,4588.72,4540,4291.79,3900.51,4232.31,4585.13,4365.64,4443.59,1692,1707,3.571,0,0,0,0,
100,3927.18,4155.38,4083.08,3820.51,4415.38,4192.31,4586.67,4535.9,4291.79,3911.28,4232.31,4585.64,4361.03,4442.56,1691,1706,3.579,0,0,0,0,
101,3923.59,4156.41,4083.59,3828.72,4414.36,4195.9,4588.21,4541.03,4291.28,3912.82,4230.77,4586.67,4358.97,4445.13,1691,1706,3.586,0,0,0,0,
102,3923.59,4152.31,4082.05,3833.85,4411.28,4201.54,4596.41,4550.26,4295.9,3906.67,4231.28,4586.15,4362.05,4446.15,1691,1705,3.594,0,0,0,0,
103,3926.15,4156.92,4082.56,3830.77,4413.85,4200.51,4600,4549.23,4300,3905.64,4231.28,4585.64,4366.15,4445.64,1692,1707,3.602,0,0,0,0,
104,3926.67,4162.05,4082.56,3823.59,4417.44,4197.95,4591.79,4541.54,4292.82,3906.15,4231.79,4587.18,4363.59,4448.21,1692,1706,3.61,0,0,0,0,
105,3925.64,4156.92,4075.9,3821.54,4417.95,4198.46,4585.13,4541.03,4287.18,3904.62,4232.31,4587.18,4358.97,4449.74,1691,1707,3.622,0,0,0,0,
106,3926.15,4153.85,4072.82,3824.62,4414.87,4196.41,4587.69,4543.59,4290.26,3907.18,4231.28,4583.59,4364.1,4445.64,1692,1707,3.626,0,0,0,0,
107,3927.69,4156.92,4073.85,3827.69,4411.28,4196.41,4588.21,4541.03,4291.79,3910.77,4229.74,4582.56,4360.51,4443.59,1692,1708,3.633,0,0,0,0,
108,3923.08,4155.38,4068.21,3825.13,4414.36,4201.03,4585.13,4537.44,4288.21,3908.21,4227.18,4583.08,4344.1,4443.08,1692,1710,3.641,0,0,0,0,
109,3916.92,4152.31,4063.08,3823.08,4419.49,4201.54,4589.23,4544.62,4286.67,3905.13,4231.28,4582.56,4354.36,4441.54,1690,1711,3.649,0,0,0,0,
110,3922.56,4155.38,4068.21,3826.67,4415.9,4199.49,4595.38,4552.31,4295.38,3904.62,4232.82,4585.13,4381.03,4444.62,1691,1714,3.658,0,0,0,0,
111,3932.31,4156.92,4069.74,3824.1,4410.26,4198.46,4592.31,4546.15,4298.97,3900,4222.56,4582.56,4373.33,4447.18,1691,1715,3.665,0,0,0,0,
112,3923.08,4150.77,4062.56,3817.95,4408.21,4194.87,4587.18,4536.92,4287.69,3891.28,4213.85,4572.82,4344.1,4436.92,1691,1716,3.672,0,0,0,0,
113,3908.21,4149.74,4060,3820,4409.74,4193.33,4585.13,4537.95,4281.03,3889.23,4216.41,4568.72,4343.08,4428.72,1690,1714,3.68,0,0,0,0,
114,3914.87,4150.77,4063.08,3827.69,4410.77,4197.95,4587.18,4542.05,4286.67,3892.82,4220,4574.36,4351.28,4432.31,1690,1714,3.688,0,0,0,0,
115,3924.1,4143.59,4065.13,3822.05,4405.13,4195.9,4594.36,4548.72,4293.33,3895.9,4216.41,4580.51,4340.51,4434.87,1691,1712,3.697,0,0,0,0,
116,3925.13,4141.03,4069.23,3812.82,4404.1,4195.38,4596.41,4557.44,4294.87,3896.41,4220.51,4583.59,4336.92,4437.95,1689,1713,3.704,0,0,0,0,
117,3936.92,4150.77,4071.28,3821.54,4411.28,4198.97,4590.26,4550.26,4292.31,3894.36,4228.72,4585.64,4351.28,4446.67,1691,1713,3.712,0,0,0,0,
118,3943.08,4158.46,4071.28,3833.85,4412.31,4192.82,4584.1,4533.33,4283.59,3891.28,4222.56,4583.59,4358.97,4446.15,1691,1713,3.719,0,0,0,0,
119,3931.28,4153.33,4076.92,3833.33,4408.21,4188.21,4585.13,4531.28,4275.9,3887.69,4218.46,4583.08,4354.87,4445.13,1691,1713,3.727,0,0,0,0,
120,3932.31,4151.28,4081.03,3826.15,4409.74,4194.36,4590.26,4540.51,4281.54,3891.28,4229.74,4591.79,4358.46,4456.92,1691,1713,3.735,0,0,0,0,
121,3949.23,4160,4077.44,3830.26,4412.31,4194.87,4590.77,4544.1,4294.36,3906.67,4239.49,4597.95,4364.62,4459.49,1693,1714,3.743,0,0,0,0,
122,3946.15,4157.44,4072.31,3835.38,4411.79,4190.77,4585.64,4537.95,4294.36,3907.18,4227.69,4591.28,4356.41,4443.59,1693,1714,3.751,0,0,0,0,
123,3934.36,4146.15,4068.72,3828.72,4414.36,4195.38,4583.08,4535.38,4284.1,3889.23,4214.87,4582.56,4347.18,4438.97,1693,1714,3.759,0,0,0,0,
124,3942.05,4155.9,4068.72,3828.21,4418.97,4200.51,4588.72,4545.13,4288.21,3887.69,4223.59,4586.67,4348.21,4449.23,1694,1713,3.766,0,0,0,0,
125,3953.33,4178.97,4071.28,3838.97,4419.49,4193.33,4588.72,4546.15,4296.41,3893.85,4225.64,4587.69,4348.21,4445.13,1694,1713,3.774,0,0,0,0,
126,3949.23,4184.62,4069.74,3844.1,4422.56,4190.77,4584.62,4535.9,4286.15,3887.69,4207.18,4573.85,4341.54,4424.62,1695,1711,3.782,0,0,0,0,
127,3943.08,4184.62,4064.62,3843.59,4426.15,4197.95,4583.59,4530.77,4274.87,3882.05,4197.95,4566.15,4338.97,4414.36,1694,1711,3.791,0,0,0,0,
128,3944.1,4186.67,4059.49,3843.08,4426.67,4196.41,4582.56,4529.23,4278.46,3884.62,4199.49,4569.74,4341.03,4421.03,1696,1711,3.799,0,0,0,0,
0,3943.08,4175.9,4058.46,3836.92,4425.13,4185.13,4581.54,4528.21,4282.56,3886.67,4192.31,4570.77,4333.85,4425.13,1695,1710,3.815,0,0,0,0,
1,3937.44,4166.67,4058.97,3830.77,4422.56,4184.1,4583.59,4532.82,4281.03,3892.31,4193.33,4569.23,4322.05,4421.03,1696,1711,3.819,0,0,0,0,
2,3942.05,4173.85,4061.03,3836.41,4420,4189.74,4585.64,4535.9,4284.62,3898.46,4204.1,4577.44,4328.21,4424.62,1696,1711,3.821,0,0,0,0,
3,3952.31,4183.08,4067.69,3847.18,4421.03,4188.72,4585.64,4533.33,4288.72,3894.36,4202.56,4587.18,4347.18,4432.82,1696,1712,3.83,0,0,0,0,
4,3958.46,4186.67,4073.85,3849.23,4421.03,4186.15,4585.13,4534.87,4288.21,3889.23,4201.54,4587.18,4355.9,4435.9,1696,1713,3.838,0,0,0,0,
5,3960.51,4186.15,4074.87,3847.18,4417.95,4186.67,4586.15,4543.08,4291.79,3890.26,4209.74,4588.72,4354.36,4437.44,1695,1715,3.845,0,0,0,0,
6,3959.49,4182.56,4076.41,3847.69,4418.46,4190.77,4587.69,4547.18,4293.85,3897.44,4213.85,4598.97,4353.33,4442.56,1696,1716,3.852,0,0,0,0,
7,3960,4184.1,4081.03,3847.69,4421.54,4192.31,4588.72,4544.62,4289.23,3903.59,4217.95,4605.13,4349.23,4447.18,1696,1717,3.86,0,0,0,0,
8,3963.08,4184.62,4078.97,3846.15,4422.05,4186.67,4586.67,4541.54,4285.13,3896.92,4217.44,4594.87,4344.62,4444.1,1695,1718,3.868,0,0,0,0,
9,3954.36,4176.41,4072.31,3842.05,4421.03,4184.62,4584.62,4542.05,4285.13,3883.59,4206.15,4583.59,4347.69,4436.41,1695,1718,3.876,0,0,0,0,
10,3938.97,4167.18,4070.26,3832.82,4421.54,4188.72,4585.64,4542.56,4281.54,3880,4195.9,4582.56,4345.64,4426.67,1695,1718,3.884,0,0,0,0,
11,3948.21,4168.21,4071.79,3834.87,4421.54,4188.72,4587.18,4540,4283.08,3888.21,4204.1,4584.62,4338.46,4424.62,1695,1717,3.892,0,0,0,0,
12,3967.69,4172.82,4075.38,3846.15,4419.49,4183.59,4588.21,4541.54,4295.9,3897.95,4216.41,4587.69,4345.13,4437.44,1694,1717,3.899,0,0,0,0,
13,3967.18,4172.82,4076.41,3842.56,4419.49,4188.72,4589.23,4546.67,4300.51,3898.46,4214.87,4588.72,4354.87,4449.23,1694,1718,3.907,0,0,0,0,
14,3952.82,4166.67,4069.23,3834.36,4419.49,4198.46,4588.72,4546.67,4294.36,3892.82,4211.79,4585.64,4349.23,4442.05,1695,1716,3.915,0,0,0,0,
15,3947.18,4172.31,4060.51,3842.56,4416.41,4193.33,4587.69,4541.54,4292.82,3892.82,4213.85,4582.05,4345.13,4428.21,1694,1718,3.923,0,0,0,0,
16,3952.31,4182.05,4064.62,3850.26,4417.95,4183.59,4586.67,4539.49,4294.87,3900.51,4214.87,4582.05,4353.85,4431.28,1695,1716,3.931,0,0,0,0,
17,3960,4176.41,4072.31,3846.15,4429.23,4186.67,4586.67,4546.67,4297.95,3903.08,4215.38,4586.67,4357.44,4442.56,1694,1717,3.939,0,0,0,0,
18,3961.03,4174.87,4071.28,3844.1,4430.77,4190.77,4588.21,4553.33,4303.08,3904.62,4223.08,4595.9,4356.92,4446.15,1695,1716,3.946,0,0,0,0,
19,3953.85,4181.54,4070.26,3844.1,4421.03,4187.18,4587.69,4551.79,4302.05,3906.15,4219.49,4596.92,4356.41,4444.1,1696,1713,3.955,0,0,0,0,
20,3953.85,4176.41,4069.74,3844.1,4420,4188.72,4585.13,4550.77,4300,3902.56,4205.64,4588.21,4357.95,4441.54,1696,1712,3.962,0,0,0,0,
21,3958.46,4172.82,4067.69,3847.69,4425.64,4191.79,4585.13,4551.28,4303.59,3899.49,4207.69,4585.13,4357.95,4441.54,1697,1711,3.97,0,0,0,0,
22,3954.87,4178.97,4068.21,3849.23,4421.54,4188.21,4585.13,4546.15,4301.03,3901.54,4211.79,4588.21,4350.26,4439.49,1698,1711,3.978,0,0,0,0,
23,3949.74,4174.36,4067.69,3842.05,4418.46,4183.08,4581.03,4536.41,4290.26,3896.92,4201.54,4586.15,4339.49,4435.9,1698,1710,3.985,0,0,0,0,
24,3949.74,4164.1,4067.18,3837.44,4424.1,4183.59,4579.49,4531.79,4282.56,3882.05,4196.92,4585.13,4336.41,4436.92,1699,1710,3.993,0,0,0,0,
25,3956.92,4172.31,4074.36,3844.1,4426.67,4184.62,4583.59,4532.82,4279.49,3876.92,4203.08,4591.28,4338.97,4443.59,1700,1708,4.001,0,0,0,0,
26,3970.26,4184.1,4084.1,3852.31,4423.08,4182.56,4585.64,4536.92,4277.44,3887.18,4207.18,4598.46,4340.51,4447.18,1699,1710,4.009,0,0,0,0,
27,3972.82,4178.97,4082.05,3849.23,4420,4183.59,4585.64,4537.95,4279.49,3893.85,4215.38,4599.49,4337.95,4447.69,1701,1710,4.017,0,0,0,0,
28,3964.1,4170.77,4073.85,3842.56,4420,4185.64,4587.18,4531.28,4281.54,3888.21,4222.56,4594.87,4334.87,4447.18,1699,1712,4.024,0,0,0,0,
29,3966.15,4178.97,4073.33,3848.21,4420,4182.56,4586.67,4531.28,4280,3885.64,4216.92,4594.36,4341.54,4445.13,1701,1714,4.032,0,0,0,0,
30,3974.36,4187.69,4076.92,3853.85,4421.54,4184.62,4586.15,4537.95,4283.08,3894.87,4221.54,4597.44,4343.59,4450.26,1701,1714,4.04,0,0,0,0,
31,3975.38,4182.05,4081.54,3852.82,4424.62,4192.82,4587.69,4538.97,4289.23,3897.95,4234.87,4602.05,4342.05,4455.9,1700,1716,4.048,0,0,0,0,
32,3978.46,4182.05,4087.18,3858.97,4428.72,4191.28,4585.64,4537.44,4288.72,3889.74,4227.69,4601.54,4350.26,4458.46,1701,1714,4.056,0,0,0,0,
33,3979.49,4186.67,4084.62,3858.97,4427.18,4182.05,4582.05,4537.95,4287.18,3886.15,4212.82,4593.33,4354.36,4458.97,1701,1714,4.064,0,0,0,0,
34,3974.87,4185.64,4080,3852.82,4423.59,4182.05,4582.56,4541.54,4292.31,3893.33,4220,4591.28,4348.72,4457.95,1702,1713,4.071,0,0,0,0,
35,3976.92,4184.62,4081.54,3857.95,4426.67,4187.69,4585.64,4544.1,4292.82,3895.38,4234.87,4600,4344.62,4457.44,1702,1714,4.079,0,0,0,0,
36,3980.51,4187.18,4086.15,3858.46,4430.77,4188.72,4588.72,4542.05,4291.28,3891.79,4230.77,4604.1,4342.05,4458.97,1702,1713,4.087,0,0,0,0,
37,3977.95,4185.64,4086.15,3848.21,4427.69,4187.18,4589.74,4539.49,4294.87,3897.44,4217.95,4601.54,4342.05,4459.49,1701,1715,4.095,0,0,0,0,
38,3977.95,4177.95,4083.59,3850.26,4419.49,4185.13,4585.13,4540.51,4292.82,3900.51,4217.95,4603.08,4347.69,4461.03,1704,1714,4.103,0,0,0,0,
39,3978.46,4170.77,4081.03,3855.38,4414.87,4182.56,4584.62,4542.05,4288.21,3889.74,4221.54,4602.56,4348.72,4462.56,1702,1714,4.111,0,0,0,0,
40,3976.41,4170.77,4081.54,3847.69,4417.95,4185.13,4592.31,4544.62,4293.33,3883.08,4218.97,4598.97,4344.62,4454.87,1704,1714,4.118,0,0,0,0,
41,3974.36,4175.9,4082.56,3847.69,4420.51,4187.69,4591.28,4548.21,4297.95,3888.72,4219.49,4600.51,4342.56,4449.74,1703,1713,4.126,0,0,0,0,
42,3972.31,4175.9,4076.92,3851.79,4418.46,4185.64,4589.74,4550.77,4298.97,3893.85,4223.59,4602.56,4342.56,4455.38,1703,1714,4.134,0,0,0,0,
43,3974.36,4169.23,4071.79,3847.18,4420,4190.26,4597.44,4556.41,4301.54,3895.38,4220.51,4601.54,4346.15,4454.87,1704,1714,4.142,0,0,0,0,
44,3970.26,4167.18,4068.72,3846.15,4424.62,4198.97,4596.41,4552.82,4296.92,3892.31,4214.87,4595.9,4340.51,4444.62,1704,1715,4.15,0,0,0,0,
45,3958.97,4170.77,4063.08,3846.67,4422.05,4200.51,4588.72,4541.03,4289.74,3882.05,4217.44,4590.26,4329.23,4438.46,1704,1716,4.158,0,0,0,0,
46,3958.46,4170.77,4065.13,3846.15,4423.08,4198.46,4592.82,4544.62,4301.54,3889.23,4218.97,4594.36,4334.87,4443.08,1704,1715,4.165,0,0,0,0,
47,3972.31,4169.74,4070.77,3851.28,4428.72,4199.49,4600.51,4557.95,4314.87,3907.69,4216.41,4597.44,4344.1,4446.15,1705,1713,4.173,0,0,0,0,
48,3976.92,4172.82,4068.72,3854.36,4424.1,4198.97,4599.49,4557.95,4307.69,3903.08,4215.9,4589.74,4334.87,4437.44,1704,1713,4.181,0,0,0,0,
49,3961.54,4164.1,4061.03,3842.56,4415.38,4198.97,4599.49,4552.82,4295.9,3886.67,4213.33,4580.51,4320,4425.13,1705,1713,4.189,0,0,0,0,
50,3953.33,4150.26,4061.54,3834.36,4414.87,4196.92,4598.46,4551.28,4298.46,3885.64,4204.62,4575.9,4317.44,4421.54,1703,1712,4.197,0,0,0,0,
51,3958.46,4153.85,4064.1,3843.59,4418.97,4190.26,4590.77,4542.05,4296.41,3883.59,4199.49,4573.33,4312.82,4424.1,1705,1714,4.204,0,0,0,0,
52,3958.97,4162.56,4065.13,3850.77,4417.44,4184.1,4584.1,4533.33,4281.03,3871.79,4200.51,4576.92,4304.1,4424.62,1704,1713,4.212,0,0,0,0,
53,3957.44,4162.05,4070.26,3848.72,4415.38,4185.64,4587.69,4537.95,4284.1,3874.36,4207.69,4584.62,4310.77,4429.23,1703,1714,4.22,0,0,0,0,
54,3960,4160,4074.36,3845.64,4420,4194.87,4594.36,4542.05,4298.46,3888.72,4215.38,4589.23,4323.59,4436.41,1704,1713,4.228,0,0,0,0,
55,3959.49,4156.41,4072.31,3844.62,4423.59,4196.41,4595.9,4537.95,4298.46,3896.41,4213.33,4592.82,4327.18,4433.33,1703,1713,4.236,0,0,0,0,
56,3958.97,4152.31,4073.33,3842.56,4421.54,4194.87,4597.44,4540.51,4294.36,3898.46,4216.92,4600,4336.41,4435.9,1703,1714,4.244,0,0,0,0,
57,3968.21,4155.38,4081.54,3843.59,4423.08,4196.92,4600,4548.21,4298.46,3900,4230.26,4605.13,4349.74,4450.26,1702,1715,4.251,0,0,0,0,
58,3969.23,4157.95,4083.59,3845.64,4428.21,4194.36,4596.41,4543.59,4300.51,3899.49,4226.67,4602.56,4345.13,4454.36,1702,1715,4.259,0,0,0,0,
59,3961.54,4156.41,4074.87,3848.72,4425.64,4190.77,4590.77,4535.9,4296.92,3894.87,4214.36,4597.95,4335.38,4445.64,1702,1716,4.267,0,0,0,0,
60,3953.33,4158.46,4071.28,3853.33,4424.62,4193.33,4589.74,4537.95,4295.38,3892.31,4217.44,4595.9,4332.82,4434.87,1702,1715,4.275,0,0,0,0,
61,3948.21,4155.38,4071.79,3846.67,4429.74,4197.44,4588.21,4540.51,4292.82,3892.82,4220.51,4596.41,4330.26,4428.72,1701,1715,4.283,0,0,0,0,
62,3950.77,4149.74,4067.69,3834.36,4428.21,4195.9,4588.21,4536.92,4293.33,3893.33,4215.9,4595.9,4333.85,4435.38,1702,1715,4.29,0,0,0,0,
63,3951.28,4148.72,4061.54,3838.46,4425.64,4195.38,4591.79,4538.46,4296.41,3894.87,4217.44,4592.31,4340.51,4442.05,1702,1716,4.298,0,0,0,0,
64,3944.62,4156.92,4063.59,3848.72,4428.21,4197.95,4592.31,4541.03,4294.36,3895.38,4221.03,4591.79,4338.46,4437.44,1702,1717,4.306,0,0,0,0,
65,3941.03,4164.62,4069.23,3850.26,4434.36,4201.03,4591.28,4539.49,4289.74,3892.82,4217.95,4595.9,4334.36,4437.95,1702,1719,4.314,0,0,0,0,
66,3945.13,4164.62,4071.28,3851.79,4440.51,4202.05,4594.36,4542.05,4291.79,3896.92,4220.51,4598.46,4337.44,4445.13,1702,1716,4.322,0,0,0,0,
67,3950.77,4167.69,4070.77,3855.9,4440.51,4200,4600,4549.74,4301.03,3905.13,4229.74,4600,4348.21,4444.62,1702,1716,4.33,0,0,0,0,
68,3954.36,4173.33,4069.74,3853.33,4434.36,4195.38,4598.97,4555.38,4306.15,3905.13,4235.38,4602.05,4358.97,4446.15,1704,1714,4.337,0,0,0,0,
69,3955.38,4171.28,4070.26,3848.72,4428.21,4192.82,4591.79,4554.87,4310.77,3906.15,4232.82,4602.56,4353.85,4447.18,1703,1716,4.351,0,0,0,0,
70,3951.79,4167.69,4071.79,3850.77,4427.69,4193.85,4592.31,4554.36,4313.33,3909.23,4230.77,4600.51,4344.1,4438.97,1705,1719,4.354,0,0,0,0,
71,3944.62,4169.74,4072.31,3851.79,4429.74,4193.85,4597.95,4554.87,4308.72,3903.08,4232.31,4601.54,4351.28,4435.9,1706,1719,4.368,0,0,0,0,
72,3939.49,4171.79,4071.28,3852.31,4430.26,4190.26,4594.87,4555.9,4305.13,3901.03,4233.33,4605.64,4360.51,4439.49,1705,1720,4.37,0,0,0,0,
73,3948.21,4171.28,4070.26,3855.38,4427.18,4187.69,4589.74,4550.77,4302.56,3902.56,4231.79,4606.15,4355.9,4432.31,1706,1719,4.376,0,0,0,0,
74,3958.46,4173.33,4072.31,3853.33,4429.74,4191.79,4591.79,4546.67,4294.36,3897.95,4231.79,4605.13,4353.33,4427.69,1705,1718,4.384,0,0,0,0,
75,3967.18,4179.49,4078.97,3854.36,4433.33,4196.92,4591.28,4549.74,4292.31,3895.38,4233.33,4615.9,4358.97,4440,1707,1716,4.392,0,0,0,0,
76,3988.72,4188.72,4085.13,3861.54,4431.28,4191.79,4586.15,4546.67,4297.95,3901.03,4235.38,4626.15,4364.62,4460.51,1707,1717,4.4,0,0,0,0,
77,4013.33,4196.92,4093.33,3867.18,4433.33,4184.1,4585.64,4536.41,4293.85,3901.03,4241.03,4628.21,4369.74,4481.03,1708,1717,4.408,0,0,0,0,
78,4033.85,4208.72,4107.69,3869.23,4438.97,4187.18,4585.64,4535.9,4288.72,3903.59,4249.23,4634.87,4381.03,4501.54,1709,1715,4.416,0,0,0,0,
79,4058.46,4217.44,4121.54,3876.41,4438.97,4190.77,4585.13,4541.03,4295.9,3915.38,4253.85,4644.1,4388.72,4520,1711,1712,4.423,0,0,0,0,
80,4076.92,4218.46,4124.62,3884.62,4438.46,4187.18,4586.15,4538.46,4296.92,3909.74,4251.28,4644.1,4383.59,4526.15,1711,1711,4.431,0,0,0,0,
81,4077.95,4221.03,4122.05,3882.56,4442.56,4187.69,4584.1,4533.85,4282.56,3888.72,4240.51,4637.95,4370.77,4520.51,1713,1712,4.44,0,0,0,0,
82,4078.46,4223.08,4121.03,3878.46,4442.56,4185.64,4583.59,4535.38,4283.08,3889.23,4233.33,4635.38,4369.23,4517.95,1714,1712,4.448,0,0,0,0,
83,4085.13,4223.08,4127.69,3883.08,4435.38,4182.56,4588.21,4542.56,4298.97,3908.72,4235.9,4642.56,4380,4523.59,1714,1717,4.455,0,0,0,0,
84,4085.13,4217.95,4131.79,3886.67,4434.36,4191.79,4588.21,4542.56,4291.28,3908.21,4233.85,4641.03,4377.95,4516.92,1716,1717,4.469,0,0,0,0,
85,4074.87,4206.67,4122.56,3880.51,4437.44,4197.44,4585.13,4533.85,4271.79,3886.15,4220.51,4621.54,4361.03,4495.9,1715,1718,4.472,0,0,0,0,
86,4060,4198.97,4110.77,3873.85,4436.41,4189.74,4592.31,4536.41,4278.46,3881.03,4216.41,4614.87,4356.41,4487.18,1717,1718,4.478,0,0,0,0,
87,4045.13,4201.54,4109.74,3870.77,4435.38,4190.26,4597.95,4542.56,4294.87,3891.28,4227.69,4629.23,4363.59,4491.79,1717,1716,4.486,0,0,0,0,
88,4035.9,4200,4114.36,3870.77,4437.44,4194.87,4590.77,4537.95,4288.21,3895.38,4231.28,4632.31,4363.59,4489.74,1718,1716,4.494,0,0,0,0,
89,4030.26,4191.79,4111.28,3875.9,4435.9,4195.9,4585.13,4534.36,4284.62,3895.38,4223.59,4623.08,4361.03,4477.44,1718,1717,4.502,0,0,0,0,
90,4018.46,4187.69,4104.62,3875.38,4435.38,4194.87,4587.69,4539.49,4293.85,3895.9,4218.97,4618.46,4358.46,4465.13,1720,1718,4.51,0,0,0,0,
91,3998.97,4177.44,4097.95,3864.1,4437.95,4190.26,4590.77,4537.44,4291.28,3892.31,4217.44,4615.38,4351.28,4458.97,1720,1717,4.517,0,0,0,0,
92,3989.74,4171.79,4092.82,3856.41,4436.41,4189.74,4589.74,4537.95,4289.74,3887.69,4221.03,4617.95,4353.85,4457.95,1721,1718,4.525,0,0,0,0,
93,3996.41,4176.41,4095.9,3859.49,4429.74,4197.44,4593.85,4546.67,4301.54,3894.36,4228.72,4629.23,4362.05,4457.44,1722,1716,4.533,0,0,0,0,
94,3998.97,4172.82,4103.59,3856.92,4429.74,4197.44,4600.51,4549.23,4305.13,3900,4227.69,4633.85,4358.97,4460.51,1722,1719,4.547,0,0,0,0,
95,3990.26,4162.56,4101.54,3851.79,4434.36,4187.69,4595.9,4546.15,4299.49,3894.36,4217.95,4628.72,4352.82,4461.54,1723,1719,4.583,0,0,0,0,
96,3982.56,4162.05,4090.77,3857.44,4433.85,4184.1,4585.13,4542.05,4299.49,3891.79,4214.87,4620.51,4350.77,4452.82,1722,1721,4.584,0,0,0,0,
97,3988.21,4167.18,4087.18,3862.56,4431.79,4191.28,4586.67,4543.08,4301.54,3896.41,4218.97,4618.97,4350.77,4448.21,1723,1724,4.607,0,0,0,0,
98,3990.77,4164.62,4093.85,3861.03,4433.85,4192.31,4590.77,4548.21,4301.03,3895.9,4219.49,4624.62,4353.33,4454.36,0,0,4.649,0,0,0,0,
99,3993.85,4162.05,4101.03,3859.49,4435.9,4193.33,4594.87,4553.33,4300,3894.87,4220.51,4630.77,4356.41,4461.03,1727,1723,4.649,0,0,0,0,
100,3982.05,4155.38,4097.95,3857.95,4430.77,4190.77,4595.9,4552.82,4302.05,3900,4219.49,4623.08,4354.36,4458.97,1729,1720,4.649,0,0,0,0,
101,3977.44,4155.38,4091.79,3858.46,4434.87,4196.92,4593.85,4551.28,4301.54,3894.36,4218.46,4620.51,4349.74,4452.82,0,0,4.656,0,0,0,0,
102,3972.82,4154.87,4085.13,3859.49,4438.97,4203.59,4591.79,4549.74,4300.51,3888.72,4217.44,4617.95,4345.13,4446.15,1734,1714,4.656,0,0,0,0,
107,3986.67,4160.51,4085.64,3856.92,4434.36,4194.87,4583.59,4537.44,4291.28,3893.33,4217.95,4617.44,4356.41,4460,1747,1726,4.664,0,0,0,0,
108,3988.72,4156.92,4089.74,3865.64,4433.33,4192.82,4588.72,4536.92,4296.92,3895.38,4222.05,4622.56,4363.08,4459.49,1749,1722,4.665,0,0,0,0,
109,3987.69,4153.33,4089.23,3862.56,4437.95,4200.51,4588.72,4538.97,4300.51,3898.46,4225.64,4623.08,4361.03,4460,1749,1717,4.681,0,0,0,0,
110,3985.13,4160,4088.21,3864.1,4437.95,4202.05,4587.69,4547.69,4305.13,3904.1,4225.13,4621.54,4357.44,4461.03,1750,1712,4.703,0,0,0,0,
111,3987.69,4167.18,4088.72,3868.21,4432.82,4188.21,4586.15,4545.64,4303.08,3905.64,4221.54,4621.03,4357.95,4458.46,1751,1708,4.706,0,0,0,0,
112,3986.15,4159.49,4081.54,3857.95,4434.87,4184.62,4584.1,4538.97,4298.97,3908.21,4220.51,4615.38,4360,4455.9,1750,1709,4.707,0,0,0,0,
113,3978.46,4155.9,4076.41,3857.44,4436.41,4189.23,4586.15,4541.54,4295.9,3905.13,4220.51,4611.28,4359.49,4454.87,0,0,4.715,0,0,0,0,
114,3970.26,4151.79,4070.77,3856.92,4438.46,4194.36,4588.72,4544.1,4292.31,3902.05,4221.03,4606.67,4358.97,4453.85,1754,1706,4.715,0,0,0,0,
115,3975.38,4156.92,4074.36,3855.38,4436.92,4189.74,4586.67,4538.97,4283.59,3887.18,4217.95,4603.59,4349.74,4448.72,1754,1703,4.723,0,0,0,0,
116,3978.46,4153.85,4077.95,3858.46,4438.46,4192.82,4584.62,4535.38,4280.51,3875.38,4212.31,4601.54,4342.56,4448.72,1756,1701,4.724,0,0,0,0,
117,3972.31,4147.69,4071.79,3862.56,4438.46,4196.41,4583.08,4528.72,4273.85,3866.15,4202.05,4594.36,4335.38,4441.54,1755,1701,4.73,0,0,0,0,
118,3970.77,4147.18,4067.18,3853.85,4436.92,4196.92,4580.51,4529.23,4277.95,3871.79,4202.05,4591.79,4341.03,4442.05,1755,1704,4.737,0,0,0,0,
119,3981.54,4150.26,4078.97,3854.36,4435.9,4194.36,4586.15,4542.56,4297.44,3896.92,4222.56,4606.67,4360,4458.46,1756,1706,4.738,0,0,0,0,
120,3989.74,4158.46,4091.79,3868.72,4438.46,4191.79,4588.72,4548.72,4307.69,3911.79,4234.87,4620.51,4368.21,4471.28,1755,1712,4.744,0,0,0,0,
121,3987.69,4163.59,4092.82,3869.23,4440,4196.92,4586.15,4546.15,4307.18,3905.64,4227.18,4616.92,4361.03,4470.77,1753,1716,4.761,0,0,0,0,
122,3983.08,4152.31,4088.72,3857.44,4437.44,4204.1,4591.28,4553.33,4305.64,3902.05,4221.54,4615.9,4356.92,4467.69,1752,1720,4.762,0,0,0,0,
123,3987.69,4147.18,4083.08,3857.95,4436.41,4199.49,4594.36,4556.41,4299.49,3898.46,4218.46,4615.9,4349.74,4461.54,1753,1718,4.768,0,0,0,0,
124,4000,4164.62,4082.56,3870.77,4437.95,4195.9,4588.72,4543.59,4293.33,3885.13,4211.79,4607.18,4336.41,4455.38,1750,1717,4.775,0,0,0,0,
125,4004.1,4176.92,4085.64,3872.31,4436.92,4198.97,4585.13,4542.05,4296.41,3883.08,4209.74,4603.59,4337.95,4458.97,1751,1713,4.784,0,0,0,0,
126,3990.77,4162.56,4080,3860,4434.87,4200,4589.23,4551.28,4297.95,3890.77,4212.31,4601.54,4341.54,4456.41,1751,1710,4.798,0,0,0,0,
127,3984.1,4153.33,4075.9,3855.38,4437.44,4200.51,4591.28,4544.62,4292.31,3889.74,4217.44,4600,4343.08,4453.85,1752,1709,4.805,0,0,0,0,
128,3991.79,4163.08,4080.51,3859.49,4444.62,4201.03,4583.08,4529.23,4285.13,3887.18,4220,4609.74,4353.33,4465.13,1751,1706,4.808,0,0,0,0,
0,3992.82,4167.18,4084.1,3862.05,4446.15,4198.97,4574.36,4529.74,4284.62,3894.87,4216.41,4618.46,4357.95,4471.79,1751,1707,4.815,0,0,0,0,
1,3995.9,4165.64,4085.13,3867.69,4439.49,4195.38,4581.54,4541.54,4296.41,3905.64,4223.59,4620.51,4358.46,4471.79,1752,1704,4.837,0,0,0,0,
2,4002.56,4169.23,4087.18,3872.31,4434.36,4194.87,4590.26,4549.23,4308.72,3908.21,4234.36,4622.56,4361.54,4473.85,1752,1702,4.844,0,0,0,0,
3,3995.38,4165.13,4088.21,3864.62,4434.87,4198.97,4586.15,4552.82,4306.67,3902.56,4226.15,4622.56,4356.41,4470.77,1752,1700,4.849,0,0,0,0,
4,3989.74,4155.9,4084.62,3855.38,4435.9,4200.51,4587.18,4551.28,4304.1,3902.56,4219.49,4616.92,4351.79,4462.56,1752,1699,4.852,0,0,0,0,
5,3998.46,4157.95,4083.08,3857.95,4438.97,4202.05,4595.9,4552.31,4310.26,3909.23,4226.67,4615.9,4355.38,4469.23,1752,1698,4.855,0,0,0,0,
6,3999.49,4162.05,4082.05,3857.44,4443.08,4202.05,4593.85,4554.36,4309.23,3904.62,4226.67,4617.44,4354.36,4477.44,1751,1699,4.862,0,0,0,0,
7,3985.64,4156.92,4081.03,3851.28,4438.97,4198.46,4584.62,4552.82,4302.05,3895.9,4221.54,4613.85,4351.79,4472.31,1753,1697,4.87,0,0,0,0,
8,3984.1,4155.38,4079.49,3854.36,4435.38,4199.49,4584.62,4552.31,4305.13,3900,4223.08,4608.21,4354.87,4469.23,1755,1695,4.878,0,0,0,0,
9,3991.28,4161.03,4076.41,3864.62,4440.51,4202.56,4588.72,4555.38,4316.92,3905.64,4223.59,4610.26,4357.44,4473.33,1758,1693,4.885,0,0,0,0,
10,3989.74,4162.05,4078.46,3867.18,4442.56,4199.49,4588.72,4555.9,4318.46,3905.13,4221.03,4614.87,4360,4475.38,1762,1687,4.893,0,0,0,0,
11,3985.13,4161.03,4081.03,3862.05,4436.92,4197.95,4585.13,4545.13,4306.15,3898.97,4220.51,4609.23,4355.9,4470.77,1765,1686,4.901,0,0,0,0,
12,3989.74,4161.54,4078.97,3858.46,4434.87,4200,4584.1,4533.85,4298.97,3889.74,4223.08,4605.13,4346.15,4469.23,1770,1687,4.909,0,0,0,0,
13,3997.44,4158.46,4078.46,3854.87,4439.49,4200.51,4585.64,4536.41,4301.54,3890.77,4231.79,4611.79,4357.95,4478.97,1775,1692,4.917,0,0,0,0,
14,4002.56,4159.49,4089.23,3857.95,4441.03,4198.46,4586.67,4540,4298.97,3901.54,4235.9,4624.62,4380,4495.38,1780,1695,4.924,0,0,0,0,
15,4004.62,4167.69,4098.97,3867.18,4434.87,4197.95,4587.18,4536.92,4292.82,3906.15,4233.85,4634.36,4375.9,4500,1784,1698,4.932,0,0,0,0,
16,3998.46,4166.67,4087.18,3866.67,4433.33,4200.51,4586.15,4535.38,4291.28,3899.49,4232.82,4625.64,4362.56,4483.59,1791,1699,4.94,0,0,0,0,
17,3997.44,4157.95,4075.38,3862.56,4434.36,4204.1,4585.64,4537.44,4293.85,3897.95,4228.72,4614.36,4367.69,4480.51,1794,1701,4.948,0,0,0,0,
18,4004.1,4159.49,4082.56,3869.23,4427.18,4197.44,4588.21,4538.97,4299.49,3912.82,4233.33,4624.62,4370.26,4498.97,1798,1703,4.955,0,0,0,0,
19,4002.56,4163.59,4090.77,3870.26,4418.46,4190.77,4589.23,4543.59,4302.56,3919.49,4239.49,4634.36,4363.59,4502.05,1800,1705,4.963,0,0,0,0,
20,3998.46,4161.03,4087.18,3858.97,4424.1,4196.41,4587.69,4547.69,4297.44,3902.05,4228.21,4621.03,4368.72,4486.15,1803,1708,4.971,0,0,0,0,
21,3997.95,4162.56,4086.15,3856.92,4429.74,4202.56,4586.67,4546.67,4295.9,3890.26,4220,4612.31,4372.31,4482.05,1805,1705,4.979,0,0,0,0,
22,3995.38,4165.64,4090.26,3862.05,4422.56,4201.03,4586.67,4554.36,4310.26,3899.49,4228.72,4622.05,4368.72,4489.23,1806,1701,4.987,0,0,0,0,
23,3993.33,4163.59,4090.26,3859.49,4425.13,4200,4594.36,4568.21,4322.56,3906.67,4234.87,4625.64,4374.87,4489.74,1807,1697,4.995,0,0,0,0,
24,3995.38,4160.51,4090.77,3860.51,4434.36,4203.59,4602.05,4561.03,4313.85,3903.08,4231.79,4622.56,4378.46,4495.38,1806,1696,5.002,0,0,0,0,
25,3991.79,4155.9,4093.33,3868.21,4429.23,4203.59,4595.38,4538.46,4290.26,3894.36,4231.28,4625.64,4373.85,4500,1807,1698,5.01,0,0,0,0,
26,3985.64,4147.18,4091.79,3863.59,4424.1,4201.03,4585.13,4532.31,4280,3881.03,4230.77,4625.13,4372.31,4492.82,1804,1702,5.018,0,0,0,0,
27,3987.69,4145.64,4088.21,3857.95,4427.69,4200.51,4587.69,4541.03,4291.28,3881.54,4232.31,4622.56,4369.23,4491.79,1803,1705,5.026,0,0,0,0,
28,3995.38,4156.41,4090.26,3868.21,4428.21,4201.54,4590.26,4540.51,4302.05,3896.41,4235.38,4628.21,4377.95,4503.08,1800,1706,5.034,0,0,0,0,
29,3992.82,4163.59,4093.85,3875.9,4424.1,4199.49,4585.13,4540,4302.56,3901.54,4232.31,4631.79,4398.97,4510.26,1800,1707,5.042,0,0,0,0,
30,3977.95,4156.41,4090.77,3867.69,4424.1,4197.95,4586.15,4545.64,4303.59,3899.49,4234.87,4626.67,4400,4509.23,1798,1706,5.049,0,0,0,0,
31,3968.72,4151.28,4083.08,3857.95,4425.13,4200,4591.28,4545.13,4308.21,3906.67,4246.67,4621.54,4388.72,4508.72,1797,1706,5.057,0,0,0,0,
32,3973.33,4157.44,4078.46,3855.9,4426.67,4200.51,4588.72,4546.67,4309.74,3917.95,4249.23,4620.51,4390.26,4511.28,1797,1707,5.066,0,0,0,0,
33,3971.28,4160.51,4079.49,3860.51,4424.62,4200.51,4587.18,4548.72,4306.15,3913.85,4242.56,4622.56,4392.82,4510.77,1796,1711,5.073,0,0,0,0,
34,3962.05,4156.92,4083.08,3860.51,4420.51,4202.56,4594.87,4548.21,4304.62,3902.05,4243.59,4629.74,4396.92,4509.23,1796,1713,5.081,0,0,0,0,
35,3965.64,4157.95,4083.08,3854.36,4422.56,4202.56,4595.38,4549.23,4303.59,3901.03,4250.26,4633.33,4404.62,4512.82,1797,1714,5.088,0,0,0,0,
36,3973.33,4162.05,4087.18,3861.54,4424.62,4201.03,4588.21,4545.13,4300.51,3906.15,4244.62,4631.79,4395.38,4516.41,1800,1710,5.096,0,0,0,0,
37,3966.67,4158.46,4086.15,3866.67,4423.59,4200,4587.69,4543.59,4305.64,3908.21,4237.44,4625.64,4386.67,4510.26,1805,1704,5.104,0,0,0,0,
38,3953.85,4150.26,4078.46,3854.87,4426.15,4201.03,4588.21,4545.64,4307.18,3902.56,4240.51,4615.9,4392.31,4501.54,1813,1696,5.112,0,0,0,0,
39,3954.87,4151.28,4077.44,3849.74,4432.31,4201.03,4584.62,4542.05,4298.97,3894.36,4245.13,4614.87,4389.74,4503.08,1834,1682,5.12,0,0,0,0,
40,3964.1,4153.33,4077.95,3853.85,4429.23,4200.51,4587.18,4548.21,4308.21,3904.1,4246.67,4622.05,4386.15,4507.69,1847,1677,5.128,0,0,0,0,
41,3962.56,4144.1,4076.41,3857.44,4420.51,4202.05,4595.9,4560.51,4329.23,3921.03,4250.26,4622.56,4387.18,4503.08,1859,1676,5.135,0,0,0,0,
42,3957.95,4145.13,4077.95,3867.18,4423.59,4202.56,4594.36,4554.36,4324.1,3919.49,4249.74,4620,4385.64,4505.64,1871,1675,5.143,0,0,0,0,
43,3963.59,4156.41,4081.03,3873.33,4424.1,4198.97,4590.26,4544.62,4307.69,3911.28,4247.69,4626.15,4394.36,4517.95,1880,1674,5.151,0,0,0,0,
44,3966.15,4145.64,4079.49,3860,4415.9,4197.95,4597.44,4557.44,4314.87,3920.51,4256.41,4634.87,4418.97,4523.59,1890,1671,5.159,0,0,0,0,
45,3966.15,4134.36,4081.03,3857.44,4416.92,4206.67,4606.15,4569.23,4328.21,3933.85,4266.67,4638.97,4424.1,4526.15,1900,1668,5.167,0,0,0,0,
46,3983.59,4154.87,4089.74,3877.95,4421.54,4209.23,4604.1,4568.21,4330.26,3931.28,4262.05,4641.03,4407.18,4533.33,1910,1660,5.174,0,0,0,0,
47,4012.82,4177.95,4094.87,3890.77,4420,4203.59,4595.9,4561.03,4322.56,3917.95,4249.74,4640,4401.03,4536.92,1918,1654,5.182,0,0,0,0,
48,4037.44,4188.72,4098.97,3894.36,4425.13,4200.51,4587.18,4548.72,4308.21,3908.21,4242.05,4634.87,4398.97,4542.56,1929,1650,5.19,0,0,0,0,
49,4061.54,4209.74,4108.72,3902.05,4434.36,4200,4584.1,4542.05,4302.56,3900.51,4237.44,4633.85,4387.18,4552.82,1936,1647,5.198,0,0,0,0,
50,4087.69,4235.38,4119.49,3908.72,4436.41,4202.56,4584.1,4536.92,4296.92,3889.74,4231.28,4632.82,4374.87,4558.97,1944,1650,5.206,0,0,0,0,
51,4112.31,4247.69,4125.13,3914.87,4441.03,4200,4576.92,4530.77,4285.13,3881.54,4231.79,4632.31,4369.23,4563.59,1951,1653,5.214,0,0,0,0,
52,4138.97,4266.67,4132.82,3927.18,4445.64,4194.36,4570.77,4529.23,4284.1,3878.46,4230.26,4634.36,4367.69,4571.79,1956,1660,5.221,0,0,0,0,
53,4147.69,4288.21,4140.51,3928.21,4443.59,4195.38,4567.69,4516.41,4274.36,3868.21,4223.08,4624.62,4352.82,4570.77,1962,1663,5.229,0,0,0,0,
54,4137.44,4290.26,4138.46,3923.08,4441.54,4194.36,4563.59,4502.56,4252.31,3857.44,4216.92,4616.41,4324.62,4551.28,1966,1665,5.237,0,0,0,0,
55,4143.59,4291.79,4136.41,3935.38,4439.49,4184.1,4565.64,4512.31,4256.92,3857.44,4209.23,4618.46,4315.9,4532.82,1970,1665,5.245,0,0,0,0,
56,4161.03,4304.1,4136.41,3947.69,4436.41,4180.51,4570.77,4522.05,4272.82,3850.77,4199.49,4611.79,4327.69,4527.69,1972,1665,5.253,0,0,0,0,
57,4152.31,4304.1,4127.69,3940,4435.9,4184.62,4566.67,4513.33,4268.72,3840.51,4192.31,4600.51,4316.92,4509.74,1974,1668,5.26,0,0,0,0,
58,4118.97,4291.79,4119.49,3930.77,4435.38,4184.62,4563.08,4511.79,4266.15,3843.08,4187.18,4596.92,4287.69,4471.28,1971,1673,5.275,0,0,0,0,
59,4100,4290.77,4118.97,3930.77,4431.79,4185.13,4568.72,4518.97,4273.85,3847.18,4180.51,4590.26,4276.41,4451.79,1970,1679,5.276,0,0,0,0,
60,4088.72,4288.72,4113.85,3924.1,4430.26,4187.69,4571.79,4521.54,4277.95,3837.95,4176.41,4576.41,4273.33,4455.38,1966,1686,5.284,0,0,0,0,
61,4066.67,4275.38,4104.1,3910.26,4432.82,4185.13,4570.26,4519.49,4273.85,3825.64,4168.72,4569.74,4254.36,4435.9,1963,1695,5.292,0,0,0,0,
62,4051.79,4274.36,4100,3910.77,4433.33,4185.64,4568.21,4513.85,4262.05,3821.54,4155.38,4562.56,4236.41,4402.05,1959,1699,5.3,0,0,0,0,
63,4060,4288.21,4097.44,3926.15,4435.38,4188.72,4567.18,4510.77,4254.87,3821.03,4156.41,4554.36,4233.33,4388.72,1955,1703,5.307,0,0,0,0,
64,4069.74,4301.54,4095.9,3937.44,4443.08,4188.21,4570.77,4514.36,4258.46,3821.03,4163.59,4554.36,4236.92,4387.18,1952,1700,5.315,0,0,0,0,
65,4053.85,4303.08,4097.95,3933.33,4450.77,4189.74,4567.69,4510.77,4256.92,3818.46,4157.95,4553.85,4232.82,4384.1,1946,1697,5.323,0,0,0,0,
66,4032.82,4291.28,4096.41,3920.51,4446.15,4194.36,4557.44,4499.49,4251.79,3818.46,4150.77,4550.77,4229.74,4382.05,1943,1693,5.331,0,0,0,0,
67,4035.38,4285.13,4097.95,3913.33,4436.92,4191.28,4557.44,4508.72,4263.08,3830.26,4163.08,4558.46,4243.59,4390.77,1937,1688,5.339,0,0,0,0,
68,4049.74,4294.87,4104.1,3915.9,4432.31,4184.1,4566.15,4526.15,4279.49,3842.56,4175.9,4572.31,4248.21,4406.67,1933,1687,5.347,0,0,0,0,
69,4049.74,4292.31,4104.62,3921.54,4431.79,4183.59,4563.59,4521.03,4274.36,3837.44,4170.77,4571.28,4238.97,4406.15,1926,1691,5.354,0,0,0,0,
70,4044.1,4280,4095.9,3921.54,4438.97,4185.64,4553.33,4505.13,4255.9,3825.13,4163.59,4563.08,4247.18,4402.56,1919,1697,5.362,0,0,0,0,
71,4053.85,4283.08,4088.21,3918.46,4444.62,4184.1,4555.9,4507.69,4253.85,3827.18,4170.26,4567.18,4264.62,4416.92,1911,1701,5.37,0,0,0,0,
72,4058.97,4290.77,4088.72,3915.9,4437.44,4183.59,4566.67,4521.03,4269.23,3840,4184.1,4578.97,4267.18,4427.18,1904,1707,5.378,0,0,0,0,
73,4051.79,4284.62,4090.26,3909.74,4433.85,4186.15,4569.74,4528.21,4280.51,3851.79,4189.74,4584.1,4272.31,4427.69,1900,1707,5.386,0,0,0,0,
74,4048.72,4280,4088.72,3911.28,4440.51,4185.64,4566.67,4529.23,4280.51,3857.44,4186.67,4584.62,4284.62,4435.9,1893,1708,5.393,0,0,0,0,
75,4047.69,4285.13,4086.67,3912.31,4441.03,4187.69,4567.18,4530.26,4283.08,3860,4187.69,4588.72,4285.13,4441.54,1888,1707,5.401,0,0,0,0,
76,4036.41,4278.46,4085.13,3902.05,4433.85,4195.38,4570.77,4532.31,4288.21,3857.95,4190.26,4588.21,4276.41,4432.31,1883,1706,5.409,0,0,0,0,
77,4023.08,4261.54,4079.49,3894.87,4429.74,4193.85,4568.72,4527.69,4278.46,3847.18,4181.03,4576.41,4261.03,4422.05,1879,1704,5.417,0,0,0,0,
78,4018.97,4251.28,4070.77,3894.87,4428.21,4189.74,4569.23,4528.72,4271.79,3837.95,4172.31,4568.72,4254.87,4418.97,1874,1700,5.425,0,0,0,0,
79,4015.38,4250.26,4065.64,3890.26,4424.1,4191.79,4571.28,4533.85,4281.03,3837.95,4172.31,4566.15,4258.46,4415.38,1870,1701,5.433,0,0,0,0,
80,4017.44,4250.77,4066.67,3886.67,4420.51,4188.21,4570.26,4534.36,4293.85,3846.67,4178.46,4565.64,4252.82,4414.36,1865,1699,5.44,0,0,0,0,
81,4021.54,4247.69,4075.9,3895.9,4423.08,4188.72,4571.28,4536.92,4297.95,3856.92,4184.62,4573.85,4258.46,4426.15,1861,1697,5.448,0,0,0,0,
82,4017.95,4247.69,4085.13,3903.59,4424.1,4192.82,4576.92,4537.95,4292.31,3856.41,4185.64,4582.56,4281.03,4443.59,1855,1695,5.459,0,0,0,0,
83,4024.1,4250.77,4085.13,3897.95,4421.54,4194.87,4579.49,4534.36,4290.77,3861.54,4195.38,4586.67,4286.15,4450.77,1850,1698,5.464,0,0,0,0,
84,4035.38,4246.15,4081.54,3896.41,4423.08,4194.87,4573.85,4533.33,4295.9,3870.26,4201.54,4587.18,4277.44,4446.15,1845,1699,5.472,0,0,0,0,
85,4029.23,4235.38,4079.49,3899.49,4428.21,4193.33,4568.21,4528.21,4289.23,3853.85,4183.59,4577.44,4271.79,4440.51,1837,1704,5.479,0,0,0,0,
86,4023.08,4237.95,4078.97,3898.97,4426.15,4189.23,4569.74,4524.62,4280.51,3836.41,4171.28,4574.36,4271.28,4446.15,1833,1704,5.487,0,0,0,0,
87,4033.85,4249.23,4083.59,3901.54,4422.05,4188.72,4573.33,4532.82,4287.69,3852.82,4184.62,4583.08,4277.95,4455.9,1828,1701,5.495,0,0,0,0,
88,4033.85,4245.13,4082.56,3905.13,4424.1,4188.21,4572.31,4534.87,4289.23,3865.13,4188.21,4579.49,4281.54,4451.28,1824,1701,5.503,0,0,0,0,
89,4023.59,4234.36,4076.92,3896.41,4423.59,4183.08,4571.79,4528.72,4283.08,3852.31,4180,4573.85,4277.95,4447.69,1821,1702,5.511,0,0,0,0,
90,4026.15,4233.85,4081.03,3889.23,4420.51,4185.13,4573.33,4534.87,4288.72,3852.31,4184.62,4585.64,4280,4457.95,1818,1707,5.519,0,0,0,0,
91,4032.82,4238.46,4082.56,3895.38,4422.56,4191.28,4574.36,4539.49,4289.74,3862.56,4187.69,4591.79,4282.05,4461.54,1815,1712,5.526,0,0,0,0,
92,4029.74,4233.85,4074.87,3893.85,4426.15,4192.31,4572.31,4533.33,4283.08,3857.95,4181.54,4582.56,4279.49,4457.44,1813,1718,5.534,0,0,0,0,
93,4029.74,4225.64,4073.85,3890.26,4420.51,4188.72,4569.23,4533.85,4283.08,3851.79,4182.05,4584.1,4285.64,4461.54,1809,1723,5.542,0,0,0,0,
94,4037.95,4223.59,4083.08,3900.51,4415.38,4183.08,4574.36,4541.54,4285.64,3860,4196.41,4593.85,4285.64,4470.77,1801,1727,5.55,0,0,0,0,
95,4035.9,4220.51,4082.56,3897.95,4417.44,4187.18,4584.1,4543.59,4288.21,3872.82,4204.62,4593.85,4278.46,4475.38,1796,1723,5.558,0,0,0,0,
96,4024.62,4220,4075.9,3885.64,4411.79,4190.77,4585.64,4541.03,4289.74,3869.74,4195.38,4591.79,4292.31,4470.77,1790,1719,5.565,0,0,0,0,
97,4026.15,4222.56,4078.46,3886.67,4406.67,4185.13,4581.03,4537.95,4289.23,3862.05,4188.21,4596.92,4308.72,4469.23,1782,1712,5.573,0,0,0,0,
98,4030.77,4214.36,4082.56,3889.23,4413.85,4186.67,4582.56,4542.56,4288.72,3866.15,4196.92,4603.59,4297.44,4475.9,1779,1705,5.581,0,0,0,0,
99,4026.67,4204.1,4082.56,3886.67,4413.33,4195.38,4586.67,4547.18,4288.72,3869.74,4204.1,4604.62,4284.62,4476.92,1776,1693,5.589,0,0,0,0,
100,4029.74,4210.26,4082.56,3889.23,4411.28,4198.46,4582.05,4538.46,4288.21,3866.67,4191.79,4603.59,4299.49,4476.41,1775,1680,5.597,0,0,0,0,
101,4033.85,4216.41,4085.13,3895.38,4425.64,4196.41,4574.36,4527.69,4284.62,3866.67,4186.15,4602.05,4303.59,4478.97,1773,1668,5.605,0,0,0,0,
102,4032.31,4212.31,4084.62,3898.46,4429.23,4191.79,4571.79,4530.77,4280.51,3869.74,4197.44,4601.03,4286.15,4478.46,1772,1666,5.612,0,0,0,0,
103,4031.28,4210.77,4078.46,3896.41,4418.97,4186.67,4570.26,4526.67,4273.85,3860.51,4197.95,4597.95,4286.15,4474.36,1771,1673,5.62,0,0,0,0,
104,4029.23,4207.18,4075.38,3885.13,4422.05,4187.18,4569.23,4514.36,4268.72,3853.33,4188.72,4593.85,4302.05,4476.41,1766,1686,5.628,0,0,0,0,
105,4027.69,4200.51,4077.95,3881.03,4425.64,4187.18,4577.44,4527.69,4280,3867.69,4196.41,4597.95,4314.87,4484.62,1767,1695,5.636,0,0,0,0,
106,4036.41,4203.08,4081.54,3895.38,4413.33,4186.15,4584.62,4545.64,4295.38,3881.03,4208.72,4605.13,4324.62,4490.26,1763,1700,5.644,0,0,0,0,
107,4039.49,4209.23,4074.36,3904.1,4407.69,4189.74,4583.08,4540,4296.92,3878.46,4204.1,4602.56,4322.56,4486.67,1760,1706,5.651,0,0,0,0,
108,4028.21,4200,4064.62,3891.28,4413.85,4190.26,4580.51,4537.95,4292.82,3872.82,4195.9,4593.33,4304.1,4475.9,1756,1709,5.659,0,0,0,0,
109,4020,4187.69,4070.26,3882.56,4417.44,4189.23,4582.56,4541.03,4291.28,3870.77,4193.85,4590.26,4292.82,4470.26,1752,1713,5.667,0,0,0,0,
110,4024.1,4191.79,4075.9,3884.1,4418.46,4198.46,4584.1,4535.38,4290.77,3870.26,4196.92,4596.92,4303.59,4475.38,1747,1716,5.675,0,0,0,0,
111,4027.18,4199.49,4073.85,3885.13,4417.44,4202.56,4585.64,4543.59,4305.13,3878.97,4205.64,4605.64,4314.87,4487.18,1744,1719,5.683,0,0,0,0,
112,4012.82,4197.44,4073.33,3882.56,4415.38,4201.03,4591.28,4554.87,4315.38,3880.51,4204.62,4605.13,4309.23,4486.67,1742,1718,5.691,0,0,0,0,
113,3999.49,4187.69,4075.38,3878.97,4415.9,4202.56,4589.74,4542.56,4297.44,3864.1,4191.79,4595.38,4298.97,4476.92,1738,1718,5.698,0,0,0,0,
114,4006.15,4185.13,4074.36,3881.54,4417.44,4194.36,4576.41,4519.49,4272.82,3852.31,4190.26,4589.74,4298.97,4481.54,1739,1715,5.706,0,0,0,0,
115,4015.9,4191.28,4069.23,3888.21,4420,4183.59,4565.13,4506.67,4264.1,3853.33,4200,4593.33,4300.51,4485.64,1737,1712,5.714,0,0,0,0,
116,4020.51,4196.41,4067.18,3893.85,4418.97,4187.69,4566.67,4506.67,4268.21,3853.33,4200.51,4598.97,4308.72,4478.46,1739,1708,5.722,0,0,0,0,
117,4023.59,4193.85,4069.23,3895.38,4415.38,4190.26,4571.28,4516.41,4273.85,3852.82,4203.59,4600.51,4314.87,4480.51,1738,1705,5.73,0,0,0,0,
118,4022.56,4191.79,4070.77,3893.33,4414.87,4185.13,4573.33,4523.08,4280,3865.64,4217.44,4602.05,4295.9,4487.18,1739,1706,5.737,0,0,0,0,
119,4016.41,4187.69,4071.79,3893.85,4415.9,4188.21,4579.49,4522.56,4280,3866.67,4208.21,4602.05,4286.15,4481.54,1740,1706,5.745,0,0,0,0,
120,4018.97,4184.1,4072.82,3894.87,4415.38,4195.9,4584.1,4526.67,4281.54,3858.97,4195.38,4600.51,4317.44,4488.72,1740,1710,5.753,0,0,0,0,
121,4028.72,4187.18,4076.92,3898.46,4410.26,4194.36,4586.15,4535.38,4288.72,3866.15,4213.85,4603.59,4334.87,4511.79,1741,1713,5.761,0,0,0,0,
122,4027.69,4185.64,4080,3901.03,4404.1,4186.67,4586.67,4536.92,4291.28,3869.74,4221.54,4608.72,4315.9,4507.18,1741,1718,5.769,0,0,0,0,
123,4021.54,4185.64,4082.05,3894.87,4409.23,4185.64,4585.13,4533.85,4291.28,3868.21,4204.1,4607.69,4315.9,4492.31,1742,1723,5.777,0,0,0,0,
124,4018.97,4183.59,4083.59,3890.26,4409.23,4192.31,4584.1,4527.18,4284.62,3865.13,4197.44,4601.54,4318.46,4490.77,1740,1728,5.784,0,0,0,0,
125,4021.54,4180,4080,3895.38,4401.54,4194.36,4582.05,4525.64,4281.03,3863.59,4202.56,4604.1,4304.1,4492.82,1741,1729,5.792,0,0,0,0,
126,4031.79,4187.18,4081.54,3902.05,4408.21,4193.85,4580.51,4533.85,4292.82,3866.15,4203.59,4613.85,4310.26,4496.92,1738,1729,5.8,0,0,0,0,
127,4027.18,4186.67,4086.67,3900,4413.33,4197.44,4586.15,4542.05,4301.54,3864.62,4200.51,4611.79,4315.9,4491.79,1738,1729,5.808,0,0,0,0,
128,4014.36,4176.92,4081.03,3891.79,4411.28,4203.08,4590.26,4536.41,4292.31,3861.54,4198.97,4608.21,4307.18,4489.74,1736,1727,5.816,0,0,0,0,
0,4021.03,4169.74,4083.59,3891.28,4412.31,4198.97,4582.56,4519.49,4277.95,3863.08,4204.62,4616.41,4310.77,4503.59,1735,1726,5.823,0,0,0,0,
1,4029.74,4172.31,4095.9,3900.51,4413.33,4192.31,4578.97,4513.85,4281.54,3870.77,4215.38,4620,4324.1,4511.79,1735,1722,5.831,0,0,0,0,
2,4021.03,4185.13,4090.77,3902.56,4420,4198.46,4588.21,4529.23,4297.44,3881.03,4218.46,4617.44,4329.23,4509.74,1735,1721,5.839,0,0,0,0,
3,4012.31,4191.79,4076.41,3898.46,4428.72,4202.05,4592.31,4536.41,4297.95,3882.56,4217.44,4618.46,4325.64,4511.28,1736,1717,5.847,0,0,0,0,
4,4012.82,4179.49,4069.23,3903.08,4422.05,4196.41,4588.21,4533.85,4288.21,3875.9,4213.33,4613.85,4322.05,4510.77,1734,1715,5.855,0,0,0,0,
5,4013.33,4173.33,4072.82,3905.13,4408.72,4195.38,4591.28,4536.41,4291.79,3877.95,4216.41,4611.28,4320.51,4509.23,1735,1710,5.863,0,0,0,0,
6,4018.97,4184.62,4081.03,3897.95,4408.72,4198.46,4594.87,4539.49,4301.54,3890.26,4228.21,4621.54,4326.67,4519.49,1733,1706,5.871,0,0,0,0,
7,4028.21,4186.67,4083.59,3895.9,4414.36,4198.97,4588.72,4539.49,4302.56,3890.77,4226.67,4625.13,4335.9,4526.15,1732,1701,5.878,0,0,0,0,
8,4028.72,4181.54,4081.54,3907.18,4413.33,4198.46,4584.1,4536.41,4297.95,3883.59,4217.44,4618.46,4339.49,4522.05,1729,1698,5.886,0,0,0,0,
9,4021.03,4180,4080.51,3912.31,4409.23,4200,4587.18,4536.41,4305.64,3892.31,4229.74,4623.08,4340.51,4524.1,1728,1697,5.894,0,0,0,0,
10,4017.44,4175.9,4080,3908.21,4410.77,4200,4588.21,4541.54,4318.46,3905.13,4239.49,4629.74,4338.97,4528.21,1726,1700,5.902,0,0,0,0,
11,4019.49,4167.69,4078.46,3906.67,4419.49,4200,4587.18,4546.67,4316.41,3897.44,4218.97,4621.03,4338.97,4521.54,1725,1707,5.91,0,0,0,0,
12,4019.49,4169.74,4077.44,3909.74,4421.54,4200.51,4590.77,4549.74,4310.77,3889.23,4209.74,4612.82,4337.95,4517.95,1723,1714,5.917,0,0,0,0,
13,4013.33,4175.9,4076.41,3906.15,4418.46,4203.59,4597.44,4554.87,4321.03,3896.41,4226.15,4617.95,4330.26,4522.56,1719,1721,5.925,0,0,0,0,
14,4007.69,4171.79,4075.9,3897.95,4420.51,4211.28,4600,4555.9,4326.67,3900,4225.64,4620.51,4329.74,4522.56,1719,1723,5.933,0,0,0,0,
15,4011.28,4169.23,4082.05,3901.03,4426.67,4208.21,4593.33,4543.59,4308.21,3894.87,4212.31,4617.44,4343.59,4525.13,1717,1721,5.941,0,0,0,0,
16,4019.49,4181.03,4091.28,3912.31,4423.59,4197.44,4588.72,4532.31,4293.33,3893.33,4222.05,4622.56,4355.9,4536.92,1716,1720,5.949,0,0,0,0,
17,4023.59,4191.28,4091.79,3914.87,4420,4198.97,4590.26,4532.82,4298.46,3896.92,4235.9,4633.33,4354.87,4544.62,1714,1718,5.956,0,0,0,0,
18,4018.97,4178.97,4085.64,3906.15,4424.1,4204.62,4588.72,4533.33,4303.59,3893.85,4223.59,4634.36,4347.18,4538.97,1711,1718,5.964,0,0,0,0,
19,4011.79,4166.67,4084.1,3899.49,4419.49,4200.51,4589.74,4537.95,4306.67,3889.74,4216.92,4628.21,4338.97,4533.85,1708,1716,5.972,0,0,0,0,
20,4011.28,4170.26,4084.62,3904.1,4413.33,4204.62,4599.49,4552.82,4323.59,3898.46,4229.74,4629.23,4342.56,4538.46,1702,1706,5.98,0,0,0,0,
21,4012.31,4173.85,4080,3909.23,4418.97,4215.9,4602.56,4561.54,4338.46,3910.77,4234.36,4632.31,4351.28,4546.15,1699,1701,5.988,0,0,0,0,
22,4011.79,4167.69,4078.46,3909.23,4423.59,4212.31,4598.46,4556.92,4334.36,3912.82,4230.26,4630.77,4350.26,4550.77,1696,1699,5.996,0,0,0,0,
23,4020,4168.72,4084.1,3907.69,4419.49,4207.69,4600.51,4555.9,4327.69,3910.26,4230.26,4635.38,4351.28,4554.36,1694,1698,6.003,0,0,0,0,
24,4032.31,4180,4088.72,3906.67,4422.05,4213.33,4602.56,4556.92,4328.72,3912.82,4233.33,4641.54,4356.41,4557.95,1692,1699,6.011,0,0,0,0,
25,4029.23,4185.64,4087.18,3904.1,4427.69,4215.9,4596.92,4547.69,4323.08,3910.26,4232.82,4635.38,4352.31,4556.41,1690,1705,6.019,0,0,0,0,
26,4023.08,4183.59,4085.13,3908.21,4427.18,4211.28,4595.9,4541.03,4316.92,3906.15,4232.31,4631.79,4350.77,4561.03,1692,1708,6.027,0,0,0,0,
27,4028.21,4182.56,4087.69,3914.36,4427.18,4211.28,4600,4549.23,4325.13,3913.85,4237.95,4642.05,4362.05,4573.33,1691,1712,6.035,0,0,0,0,
28,4032.31,4184.1,4090.77,3904.62,4429.74,4215.38,4601.54,4562.56,4340,3927.18,4245.13,4647.18,4372.82,4576.41,1692,1715,6.042,0,0,0,0,
29,4030.26,4185.13,4089.74,3894.36,4437.44,4216.92,4605.13,4573.33,4352.31,3935.9,4247.18,4644.62,4376.41,4571.79,1692,1714,6.05,0,0,0,0,
30,4026.15,4185.13,4088.72,3902.56,4439.49,4217.95,4612.82,4577.44,4360,3940.51,4244.62,4647.18,4374.36,4572.31,1693,1714,6.058,0,0,0,0,
31,4022.56,4187.18,4088.21,3911.79,4428.72,4216.92,4612.82,4573.33,4358.46,3943.59,4245.64,4648.21,4370.26,4572.31,1693,1710,6.066,0,0,0,0,
32,4020.51,4180.51,4080.51,3903.08,4422.56,4215.9,4608.21,4568.72,4354.36,3939.49,4248.21,4647.69,4368.21,4568.72,1693,1707,6.074,0,0,0,0,
33,4018.46,4175.9,4073.33,3894.87,4429.23,4217.95,4611.28,4572.31,4357.95,3930.77,4241.54,4645.64,4364.1,4570.77,1693,1702,6.082,0,0,0,0,
34,4017.95,4180.51,4076.41,3900.51,4436.92,4221.03,4613.85,4572.31,4355.9,3929.23,4233.33,4637.95,4356.41,4571.28,1692,1699,6.089,0,0,0,0,
35,4024.1,4180.51,4079.49,3902.56,4437.44,4217.95,4611.79,4566.15,4344.62,3928.21,4230.77,4632.31,4349.23,4562.05,1691,1696,6.098,0,0,0,0,
36,4021.03,4170.77,4076.92,3893.33,4437.95,4217.44,4611.79,4558.97,4338.97,3918.46,4225.13,4633.33,4341.54,4552.31,1690,1693,6.105,0,0,0,0,
37,4007.18,4164.62,4071.79,3884.62,4440,4224.62,4613.33,4555.38,4338.97,3909.74,4215.38,4628.21,4331.28,4547.69,1689,1691,6.113,0,0,0,0,
38,4014.87,4166.15,4071.28,3889.23,4441.03,4223.08,4610.26,4557.44,4335.9,3913.85,4215.9,4622.05,4329.74,4551.28,1687,1689,6.121,0,0,0,0,
39,4030.77,4168.21,4077.44,3898.97,4438.46,4215.9,4610.26,4557.95,4335.38,3916.92,4220.51,4624.62,4331.28,4553.85,1687,1688,6.129,0,0,0,0,
40,4021.54,4169.74,4076.92,3896.92,4440,4216.92,4609.74,4554.36,4333.85,3908.72,4211.79,4622.56,4324.1,4541.54,1687,1686,6.136,0,0,0,0,
41,4011.28,4166.67,4072.31,3890.77,4444.62,4218.97,4607.18,4553.33,4326.67,3905.64,4207.69,4617.44,4321.03,4534.36,1689,1684,6.144,0,0,0,0,
42,4027.18,4166.67,4080,3895.9,4445.13,4216.41,4606.15,4554.36,4327.69,3906.67,4214.87,4624.1,4327.69,4550.77,1694,1680,6.152,0,0,0,0,
43,4035.38,4170.26,4086.15,3897.95,4443.59,4213.33,4603.08,4547.18,4328.21,3901.54,4210.77,4626.67,4325.13,4555.9,1694,1680,6.16,0,0,0,0,
44,4021.54,4166.67,4076.41,3889.74,4443.59,4209.23,4597.95,4534.87,4315.38,3894.87,4196.92,4616.92,4313.33,4541.54,1698,1679,6.168,0,0,0,0,
45,4019.49,4164.62,4075.9,3887.18,4437.95,4201.03,4598.46,4538.97,4319.49,3902.05,4203.08,4621.03,4317.95,4544.1,1700,1679,6.175,0,0,0,0,
46,4033.85,4170.77,4089.23,3890.77,4426.67,4199.49,4601.03,4553.33,4337.44,3922.56,4223.08,4633.85,4335.38,4558.46,1702,1679,6.183,0,0,0,0,
47,4043.08,4170.77,4093.33,3892.31,4429.23,4209.23,4603.59,4555.9,4335.38,3927.18,4230.77,4634.87,4343.59,4564.62,1705,1678,6.191,0,0,0,0,
48,4043.08,4170.77,4092.82,3893.33,4444.1,4213.85,4609.74,4554.36,4330.26,3917.44,4233.33,4639.49,4348.21,4570.77,1707,1677,6.199,0,0,0,0,
49,4044.62,4176.41,4095.9,3894.36,4443.59,4207.69,4610.26,4559.49,4335.38,3920,4234.87,4645.13,4354.87,4574.87,1708,1673,6.207,0,0,0,0,
50,4046.67,4174.36,4092.82,3893.33,4436.41,4201.54,4603.08,4553.33,4331.79,3921.03,4230.26,4636.92,4354.36,4568.21,1709,1668,6.215,0,0,0,0,
51,4049.74,4171.28,4089.23,3895.38,4441.03,4204.62,4600,4546.15,4324.62,3910.77,4228.72,4631.28,4349.23,4564.1,1710,1661,6.222,0,0,0,0,
52,4053.85,4180.51,4092.31,3898.97,4446.15,4207.69,4602.56,4548.72,4326.15,3914.87,4233.33,4641.03,4354.87,4571.79,1710,1655,6.23,0,0,0,0,
53,4049.23,4185.64,4096.41,3894.87,4444.1,4205.13,4601.03,4546.15,4326.67,3924.62,4234.87,4648.72,4369.74,4581.03,1711,1652,6.238,0,0,0,0,
54,4044.62,4180.51,4095.9,3889.23,4442.56,4201.03,4594.36,4537.95,4323.08,3916.41,4230.26,4645.13,4370.77,4583.08,1709,1657,6.246,0,0,0,0,
55,4051.28,4180.51,4090.77,3891.28,4444.1,4199.49,4594.36,4538.97,4325.13,3914.87,4226.67,4643.08,4364.1,4581.54,1711,1665,6.254,0,0,0,0,
56,4060.51,4186.15,4093.33,3897.44,4444.62,4200,4600,4543.59,4328.21,3928.21,4230.26,4647.69,4370.77,4584.1,1709,1672,6.261,0,0,0,0,
57,4063.08,4186.15,4100.51,3893.85,4442.56,4198.46,4598.97,4541.54,4326.15,3926.15,4232.82,4650.77,4376.92,4588.72,1709,1679,6.269,0,0,0,0,
58,4058.97,4184.62,4095.38,3882.56,4439.49,4198.97,4593.33,4538.97,4324.62,3914.36,4224.1,4647.18,4365.13,4586.67,1708,1679,6.277,0,0,0,0,
59,4052.82,4183.59,4089.23,3880,4440.51,4201.03,4595.38,4539.49,4322.56,3912.82,4217.44,4640.51,4354.36,4578.46,1707,1678,6.285,0,0,0,0,
60,4049.74,4182.56,4089.74,3881.54,4443.59,4202.05,4596.92,4539.49,4312.82,3910.77,4221.03,4633.33,4354.87,4569.23,1707,1676,6.293,0,0,0,0,
61,4049.74,4180,4088.21,3877.44,4443.59,4203.59,4593.33,4537.44,4307.69,3907.69,4227.69,4632.31,4359.49,4571.28,1708,1681,6.301,0,0,0,0,
62,4049.23,4185.13,4089.74,3877.95,4441.03,4202.56,4593.85,4536.41,4315.38,3916.41,4232.31,4640.51,4372.31,4584.62,1709,1685,6.308,0,0,0,0,
63,4050.26,4187.18,4095.38,3881.03,4438.97,4202.05,4596.41,4538.97,4321.03,3920.51,4234.87,4646.15,4383.08,4588.21,1709,1694,6.316,0,0,0,0,
64,4052.82,4175.38,4090.77,3872.82,4443.08,4204.62,4597.44,4538.46,4319.49,3917.44,4235.9,4645.13,4382.56,4580.51,1711,1700,6.324,0,0,0,0,
65,4051.79,4169.74,4089.23,3868.72,4441.03,4204.1,4598.46,4540,4322.56,3922.05,4231.79,4645.64,4381.54,4584.1,1711,1705,6.332,0,0,0,0,
66,4053.85,4179.49,4102.05,3877.95,4429.74,4200,4600.51,4543.59,4326.67,3924.1,4223.08,4649.23,4386.67,4593.33,1715,1707,6.34,0,0,0,0,
67,4056.41,4186.15,4105.13,3882.05,4427.69,4199.49,4601.54,4541.03,4322.56,3915.38,4221.54,4649.74,4385.13,4590.26,1716,1708,6.347,0,0,0,0,
68,4050.26,4177.95,4094.87,3877.44,4429.74,4201.03,4601.54,4537.44,4315.9,3908.72,4229.74,4647.18,4377.95,4581.03,1720,1710,6.355,0,0,0,0,
69,4044.1,4170.26,4095.9,3875.9,4426.67,4202.05,4600.51,4538.97,4318.46,3914.36,4234.36,4646.67,4376.41,4581.54,1725,1706,6.363,0,0,0,0,
70,4044.62,4175.38,4107.18,3876.92,4433.33,4202.56,4600,4538.97,4323.08,3922.56,4232.82,4648.72,4382.56,4587.18,1728,1704,6.371,0,0,0,0,
71,4047.69,4184.1,4107.18,3877.44,4440,4203.59,4600.51,4537.44,4321.54,3921.03,4234.36,4648.72,4385.64,4585.64,1733,1700,6.379,0,0,0,0,
72,4055.9,4184.62,4101.54,3878.46,4432.31,4203.59,4601.03,4540,4321.03,3916.92,4235.9,4648.21,4381.54,4585.13,1736,1697,6.387,0,0,0,0,
73,4064.1,4182.56,4105.13,3877.44,4428.21,4202.05,4601.03,4541.54,4326.15,3919.49,4233.85,4652.31,4380,4589.74,1740,1694,6.394,0,0,0,0,
74,4070.26,4183.59,4112.31,3874.36,4432.82,4201.03,4601.54,4538.46,4323.08,3920.51,4235.38,4656.92,4383.08,4593.33,1744,1695,6.402,0,0,0,0,
75,4073.33,4183.59,4108.72,3877.95,4436.41,4201.03,4602.56,4535.9,4312.82,3915.38,4241.54,4657.95,4386.15,4592.82,1748,1697,6.41,0,0,0,0,
76,4068.21,4189.23,4097.95,3887.69,4438.46,4201.03,4601.03,4536.41,4307.69,3912.82,4241.54,4655.38,4385.13,4594.87,1755,1705,6.418,0,0,0,0,
77,4063.59,4197.44,4094.87,3886.67,4439.49,4200,4596.92,4536.41,4310.77,3912.31,4234.36,4649.74,4382.56,4596.92,1758,1706,6.426,0,0,0,0,
78,4069.74,4200,4103.08,3883.08,4439.49,4201.03,4599.49,4537.44,4318.97,3920,4231.28,4650.26,4387.18,4597.95,1761,1708,6.433,0,0,0,0,
79,4075.38,4202.05,4105.13,3886.15,4444.1,4202.56,4602.56,4542.05,4327.69,3930.77,4231.28,4657.95,4392.82,4604.62,1764,1707,6.441,0,0,0,0,
80,4075.38,4202.05,4101.03,3883.08,4444.62,4200.51,4593.33,4542.05,4332.31,3929.74,4230.77,4658.46,4392.31,4610.26,1765,1709,6.449,0,0,0,0,
81,4082.56,4200.51,4102.56,3876.41,4440.51,4197.44,4586.67,4538.46,4332.31,3926.67,4232.82,4652.82,4389.74,4613.85,1766,1710,6.457,0,0,0,0,
82,4098.46,4200.51,4106.15,3878.46,4441.03,4198.46,4592.82,4537.95,4323.08,3921.54,4234.87,4654.36,4390.26,4626.67,1766,1713,6.465,0,0,0,0,
83,4117.44,4208.72,4110.26,3884.62,4442.05,4201.03,4597.44,4537.95,4309.74,3908.72,4235.9,4654.87,4386.67,4640.51,1767,1712,6.473,0,0,0,0,
84,4141.03,4223.08,4117.44,3889.74,4442.05,4201.54,4595.38,4536.41,4308.72,3905.64,4243.08,4656.92,4384.62,4651.79,1765,1709,6.48,0,0,0,0,
85,4164.1,4235.9,4126.15,3895.9,4441.54,4201.54,4592.31,4534.87,4315.9,3911.28,4249.23,4666.67,4392.31,4670.77,1765,1705,6.488,0,0,0,0,
86,4169.74,4237.95,4129.74,3896.41,4442.56,4201.54,4588.72,4534.36,4314.36,3909.74,4246.15,4669.23,4395.9,4682.05,1761,1701,6.496,0,0,0,0,
87,4166.67,4236.92,4124.62,3890.26,4443.59,4198.97,4585.64,4534.87,4318.46,3908.72,4242.56,4662.56,4389.23,4677.44,1758,1701,6.504,0,0,0,0,
88,4168.72,4235.9,4125.64,3880,4442.05,4196.41,4588.21,4535.38,4328.72,3916.92,4245.13,4661.54,4387.18,4673.85,1755,1699,6.512,0,0,0,0,
89,4166.67,4223.08,4135.38,3873.85,4441.54,4196.92,4589.74,4536.41,4329.74,3926.15,4249.74,4665.13,4396.41,4675.9,1751,1701,6.519,0,0,0,0,
90,4156.92,4215.38,4132.31,3878.97,4442.56,4200,4586.67,4538.97,4329.23,3926.67,4250.26,4665.64,4398.46,4679.49,1749,1699,6.527,0,0,0,0,
91,4154.36,4225.64,4121.03,3889.23,4442.56,4200,4588.72,4537.44,4328.21,3923.59,4249.74,4669.23,4399.49,4682.56,1747,1697,6.535,0,0,0,0,
92,4155.9,4230.26,4119.49,3892.82,4444.62,4201.54,4598.97,4537.95,4327.69,3925.13,4255.9,4672.31,4406.15,4680.51,1744,1693,6.543,0,0,0,0,
93,4141.54,4217.95,4115.9,3882.05,4449.23,4206.15,4604.62,4544.62,4332.82,3927.69,4262.05,4666.67,4409.74,4674.87,1743,1690,6.551,0,0,0,0,
94,4119.49,4206.67,4105.13,3864.1,4447.69,4207.18,4600.51,4545.13,4338.97,3929.74,4262.05,4657.95,4411.28,4669.23,1742,1690,6.559,0,0,0,0,
95,4106.15,4198.46,4102.05,3860.51,4443.59,4204.1,4600,4544.1,4337.95,3937.44,4262.05,4660,4413.33,4663.59,1740,1695,6.566,0,0,0,0,
96,4097.44,4187.69,4100,3864.62,4444.62,4202.56,4601.54,4545.13,4338.97,3945.13,4264.62,4662.56,4413.33,4661.03,1742,1700,6.574,0,0,0,0,
97,4087.69,4183.08,4097.44,3861.54,4445.64,4200.51,4598.46,4540.51,4343.59,3943.08,4264.62,4656.92,4412.31,4658.46,1740,1707,6.582,0,0,0,0,
98,4080.51,4185.13,4104.1,3861.03,4440,4199.49,4598.46,4542.56,4341.54,3938.97,4263.59,4656.92,4414.36,4652.82,1740,1717,6.59,0,0,0,0,
99,4079.49,4184.62,4107.18,3865.64,4437.95,4201.54,4602.56,4551.79,4336.92,3937.44,4263.08,4661.03,4414.87,4650.77,1741,1724,6.598,0,0,0,0,
100,4077.95,4183.59,4100.51,3861.03,4443.59,4200.51,4602.05,4550.77,4334.87,3935.38,4262.05,4656.92,4412.31,4649.74,1740,1733,6.605,0,0,0,0,
101,4075.38,4181.54,4097.44,3855.38,4437.44,4195.9,4598.97,4548.21,4336.41,3937.95,4263.08,4656.92,4411.79,4647.18,1740,1737,6.613,0,0,0,0,
102,4076.92,4176.92,4101.03,3858.46,4425.64,4195.9,4600.51,4554.87,4339.49,3941.03,4263.59,4663.59,4411.28,4648.21,1739,1740,6.621,0,0,0,0,
103,4074.87,4173.85,4101.54,3854.36,4433.33,4200.51,4602.56,4554.87,4339.49,3938.46,4264.1,4664.62,4411.28,4651.28,1740,1739,6.629,0,0,0,0,
104,4059.49,4170.26,4097.95,3844.62,4441.03,4200.51,4603.59,4557.95,4341.03,3943.08,4266.15,4663.59,4414.36,4647.69,1740,1736,6.637,0,0,0,0,
105,4040.51,4158.46,4090.26,3844.62,4430.26,4201.54,4607.18,4568.72,4344.62,3944.1,4264.1,4658.97,4409.23,4636.41,1742,1733,6.645,0,0,0,0,
106,4038.46,4151.28,4078.97,3848.21,4429.74,4210.26,4610.77,4571.28,4344.1,3929.74,4260.51,4648.21,4394.36,4628.21,1742,1732,6.652,0,0,0,0,
107,4038.46,4155.9,4074.36,3849.23,4440.51,4211.28,4613.85,4567.69,4337.44,3923.08,4263.59,4644.1,4391.28,4625.13,1744,1730,6.66,0,0,0,0,
108,4024.62,4158.46,4078.97,3848.72,4441.03,4203.59,4614.87,4565.64,4335.9,3928.21,4267.18,4645.64,4397.95,4617.44,1745,1726,6.668,0,0,0,0,
109,4018.97,4155.38,4086.15,3849.74,4440,4203.08,4614.36,4562.05,4336.92,3927.69,4264.62,4645.64,4400,4612.82,1746,1728,6.676,0,0,0,0,
110,4033.33,4157.44,4092.31,3855.38,4441.54,4206.67,4615.9,4555.9,4332.82,3924.62,4265.64,4648.21,4397.95,4616.92,1748,1732,6.684,0,0,0,0,
111,4038.97,4157.44,4090.26,3857.44,4436.92,4203.59,4614.36,4553.33,4329.74,3924.1,4270.26,4650.77,4398.97,4620,1747,1741,6.692,0,0,0,0,
112,4027.18,4154.36,4086.15,3849.23,4429.23,4201.54,4605.13,4551.79,4328.72,3924.1,4269.23,4648.72,4398.97,4620.51,1750,1744,6.699,0,0,0,0,
113,4018.46,4155.38,4092.31,3846.67,4431.28,4202.05,4601.54,4551.79,4329.23,3925.13,4265.13,4649.74,4397.95,4621.03,1749,1743,6.707,0,0,0,0,
114,4019.49,4155.9,4098.46,3852.82,4440,4200.51,4603.59,4551.28,4334.87,3927.18,4266.15,4652.82,4397.95,4621.54,1751,1738,6.715,0,0,0,0,
115,4018.97,4156.41,4097.95,3854.87,4437.95,4197.95,4601.03,4544.62,4338.97,3927.69,4267.69,4656.92,4400.51,4627.69,1753,1729,6.723,0,0,0,0,
116,4020.51,4157.44,4100.51,3851.79,4427.69,4196.92,4598.97,4541.03,4333.85,3928.21,4265.13,4658.97,4401.03,4630.77,1756,1721,6.731,0,0,0,0,
117,4024.1,4151.79,4098.97,3847.69,4429.23,4200,4603.08,4542.56,4329.23,3921.03,4261.54,4652.31,4391.79,4622.05,1759,1715,6.738,0,0,0,0,
118,4016.92,4145.64,4091.79,3844.62,4432.82,4202.05,4603.59,4540.51,4327.18,3912.31,4262.05,4648.72,4388.72,4620.51,1763,1712,6.746,0,0,0,0,
119,4012.31,4150.77,4093.85,3847.18,4427.69,4199.49,4600.51,4543.59,4325.13,3916.92,4264.1,4654.87,4400,4631.28,1766,1709,6.754,0,0,0,0,
120,4022.56,4151.28,4094.87,3849.74,4427.18,4197.44,4604.1,4553.33,4328.21,3927.69,4266.15,4654.87,4409.23,4632.82,1771,1708,6.762,0,0,0,0,
121,4027.18,4142.05,4089.23,3848.72,4434.36,4198.46,4609.74,4555.38,4331.79,3927.18,4267.18,4648.72,4408.21,4625.64,1777,1707,6.77,0,0,0,0,
122,4016.92,4137.95,4085.13,3845.13,4436.92,4198.97,4608.72,4552.31,4331.79,3916.92,4268.72,4645.13,4402.05,4623.59,1781,1711,6.778,0,0,0,0,
123,4009.74,4139.49,4083.08,3842.56,4433.33,4198.46,4604.1,4552.31,4326.67,3911.28,4266.67,4639.49,4398.97,4621.03,1788,1714,6.785,0,0,0,0,
124,4005.64,4137.44,4084.1,3842.56,4429.23,4196.92,4602.56,4551.28,4324.62,3912.31,4264.62,4636.41,4404.1,4616.92,1794,1716,6.793,0,0,0,0,
125,3991.28,4132.82,4089.23,3843.59,4427.69,4196.92,4604.62,4551.79,4328.21,3915.38,4266.15,4643.08,4407.69,4619.49,1799,1721,6.801,0,0,0,0,
126,3987.18,4133.85,4087.69,3844.62,4433.33,4200,4606.15,4552.82,4331.28,3913.85,4265.13,4641.54,4400,4618.46,1804,1724,6.809,0,0,0,0,
127,4000.51,4145.64,4081.03,3843.59,4440.51,4201.54,4604.62,4548.72,4325.64,3910.26,4261.54,4633.33,4395.9,4607.69,1809,1726,6.817,0,0,0,0,
128,4006.15,4163.59,4080,3849.74,4440.51,4198.97,4601.54,4550.26,4322.56,3913.33,4265.13,4633.33,4401.03,4602.56,1814,1727,6.824,0,0,0,0,
0,4005.13,4177.44,4083.59,3861.54,4440,4196.92,4601.54,4553.33,4325.64,3913.33,4266.15,4633.33,4398.97,4601.54,1820,1731,6.832,0,0,0,0,
1,4017.44,4192.31,4087.69,3866.67,4446.15,4199.49,4601.03,4545.13,4321.54,3909.23,4254.87,4630.77,4390.77,4595.38,1825,1733,6.84,0,0,0,0,
2,4023.59,4204.1,4091.79,3866.15,4449.74,4201.54,4600.51,4542.05,4320.51,3911.79,4247.18,4631.28,4384.1,4586.15,1834,1736,6.848,0,0,0,0,
3,4009.23,4202.05,4086.15,3866.67,4445.13,4198.97,4600.51,4540,4318.97,3908.21,4244.62,4622.56,4373.33,4571.28,1837,1737,6.856,0,0,0,0,
4,3998.46,4199.49,4080,3867.69,4437.95,4198.46,4597.44,4528.72,4304.1,3887.18,4234.36,4610.26,4357.95,4556.41,1841,1742,6.864,0,0,0,0,
5,3989.23,4209.23,4085.64,3864.62,4436.41,4196.92,4590.77,4525.64,4296.41,3875.9,4226.15,4607.69,4347.69,4546.15,1843,1753,6.871,0,0,0,0,
6,3983.59,4217.44,4095.38,3868.21,4440.51,4189.23,4587.69,4528.21,4302.05,3880,4228.21,4606.67,4340.51,4538.97,1845,1765,6.879,0,0,0,0,
7,3993.33,4216.92,4092.31,3874.87,4440.51,4188.72,4588.72,4527.69,4302.05,3880,4226.67,4600.51,4334.36,4532.82,1845,1773,6.887,0,0,0,0,
8,4001.03,4217.44,4078.97,3873.33,4440,4196.41,4590.26,4532.31,4300.51,3878.46,4217.44,4598.46,4330.26,4526.67,1846,1775,6.899,0,0,0,0,
9,3991.79,4216.41,4071.79,3867.18,4441.54,4201.54,4589.74,4534.87,4304.1,3878.97,4212.82,4597.44,4326.15,4520.51,1845,1768,6.903,0,0,0,0,
10,3987.18,4215.9,4076.41,3864.1,4439.49,4198.46,4585.13,4524.1,4297.44,3881.54,4220.51,4593.85,4326.15,4522.05,1845,1756,6.91,0,0,0,0,
11,3989.23,4218.97,4083.08,3864.1,4441.54,4195.38,4588.72,4534.87,4303.08,3893.33,4232.31,4598.97,4338.46,4534.36,1846,1739,6.918,0,0,0,0,
12,3985.13,4216.92,4094.36,3860,4445.64,4199.49,4597.95,4557.95,4327.69,3903.59,4235.9,4611.79,4350.26,4540,1844,1730,6.926,0,0,0,0,
13,3988.72,4214.87,4107.69,3860.51,4443.08,4196.92,4594.36,4543.59,4318.46,3892.31,4231.28,4618.97,4350.77,4536.92,1845,1724,6.934,0,0,0,0,
14,4004.62,4219.49,4106.67,3870.26,4442.05,4188.21,4581.54,4518.97,4284.1,3877.44,4229.74,4617.44,4347.18,4542.56,1844,1723,6.942,0,0,0,0,
15,4015.38,4218.97,4097.95,3873.85,4445.13,4189.23,4580.51,4516.41,4278.97,3876.92,4236.92,4614.87,4351.79,4559.49,1845,1730,6.95,0,0,0,0,
16,4014.87,4216.41,4094.87,3867.18,4445.64,4194.36,4586.67,4523.59,4294.87,3880,4245.13,4616.41,4363.08,4571.28,1842,1739,6.957,0,0,0,0,
