COUNTER,AF3,F7,F3, FC5, T7, P7, O1, O2,P8, T8, FC6, F4,F8, AF4,GYROX, GYROY, TIMESTAMP, FUNC_ID, FUNC_VALUE, MARKER, SYNC_SIGNAL,
36,4075.9,4168.72,4091.28,3869.74,4378.46,4184.1,4585.64,4544.1,4296.92,3925.64,4244.62,4621.54,4362.05,4647.69,1697,1706,0.085,0,0,0,0,
37,4075.38,4168.21,4084.62,3873.85,4383.59,4183.59,4574.87,4531.28,4279.49,3925.13,4243.08,4615.38,4353.33,4632.31,1697,1705,0.093,0,0,0,0,
38,4077.44,4172.31,4081.54,3878.46,4390.26,4184.1,4573.85,4533.85,4282.05,3924.62,4253.33,4616.92,4357.95,4632.82,1696,1707,0.1,0,0,0,0,
39,4075.38,4173.85,4087.18,3878.46,4387.18,4183.08,4580,4540,4291.79,3927.69,4250.26,4617.95,4359.49,4642.05,1697,1707,0.108,0,0,0,0,
40,4061.03,4168.21,4083.08,3868.72,4381.54,4182.05,4574.87,4528.21,4280.51,3917.44,4236.92,4606.15,4347.18,4626.15,1695,1708,0.116,0,0,0,0,
41,4056.92,4168.21,4072.82,3861.03,4382.05,4183.08,4568.72,4524.1,4272.82,3911.28,4233.33,4596.92,4348.21,4611.28,1696,1709,0.124,0,0,0,0,
42,4070.77,4174.36,4073.85,3868.21,4384.62,4185.64,4571.79,4534.87,4281.54,3925.13,4234.87,4601.54,4357.44,4621.54,1696,1710,0.132,0,0,0,0,
43,4075.9,4174.87,4077.95,3878.46,4384.1,4187.69,4577.44,4540.51,4290.77,3931.79,4238.46,4611.79,4347.69,4630.77,1697,1710,0.14,0,0,0,0,
44,4075.9,4177.95,4080,3878.97,4386.67,4187.18,4583.08,4543.59,4298.46,3926.15,4249.74,4617.95,4343.59,4630.77,1696,1710,0.147,0,0,0,0,
45,4078.46,4182.05,4083.08,3878.97,4391.79,4185.13,4584.62,4547.69,4301.03,3926.15,4252.31,4616.92,4361.03,4633.85,1697,1710,0.155,0,0,0,0,
46,4067.69,4174.87,4081.03,3877.44,4392.31,4185.64,4578.97,4538.46,4293.33,3928.72,4237.44,4608.21,4365.64,4633.85,1696,1708,0.163,0,0,0,0,
47,4057.95,4167.69,4076.41,3874.87,4387.69,4187.18,4580.51,4535.38,4291.79,3928.72,4236.41,4606.67,4355.38,4631.28,1697,1707,0.171,0,0,0,0,
48,4066.15,4169.23,4077.95,3875.38,4382.05,4185.64,4586.67,4550.26,4302.56,3931.28,4249.74,4617.44,4354.36,4631.28,1697,1705,0.179,0,0,0,0,
49,4066.15,4170.26,4081.03,3876.41,4378.97,4185.64,4584.62,4548.21,4300,3928.21,4249.74,4618.97,4354.87,4630.26,1697,1707,0.186,0,0,0,0,
50,4054.36,4175.38,4083.59,3876.92,4385.64,4189.74,4583.59,4533.85,4290.77,3930.77,4245.13,4612.31,4355.38,4629.74,1697,1705,0.194,0,0,0,0,
51,4060.51,4181.54,4089.74,3880,4394.36,4189.23,4585.13,4540.51,4303.08,3945.13,4249.23,4613.85,4367.18,4634.87,1695,1706,0.202,0,0,0,0,
52,4073.33,4171.79,4093.33,3881.03,4390.26,4187.18,4590.26,4556.92,4316.41,3944.62,4252.31,4623.08,4369.23,4634.87,1696,1707,0.21,0,0,0,0,
53,4069.23,4163.59,4089.74,3877.95,4382.56,4185.64,4589.23,4551.28,4300,3927.69,4249.23,4627.69,4358.46,4630.77,1696,1708,0.218,0,0,0,0,
54,4063.08,4173.85,4088.21,3878.97,4382.05,4181.54,4575.9,4537.95,4284.62,3926.15,4248.72,4623.59,4356.92,4636.92,1696,1709,0.226,0,0,0,0,
55,4062.56,4175.38,4091.79,3880,4383.59,4181.54,4570.77,4537.95,4292.31,3930.26,4249.74,4617.95,4362.05,4643.59,1695,1709,0.233,0,0,0,0,
56,4058.97,4159.49,4086.67,3874.36,4382.05,4186.15,4581.03,4538.97,4294.87,3922.05,4248.72,4615.9,4354.36,4632.82,1695,1709,0.248,0,0,0,0,
57,4056.41,4156.41,4081.54,3874.87,4381.03,4188.21,4586.67,4546.15,4294.87,3929.23,4248.21,4620,4347.69,4629.74,1695,1707,0.253,0,0,0,0,
58,4060,4167.18,4083.08,3875.9,4381.54,4187.18,4585.13,4550.77,4301.03,3945.64,4249.74,4626.67,4358.97,4642.05,1695,1706,0.257,0,0,0,0,
59,4060.51,4163.08,4083.08,3865.13,4384.62,4187.69,4585.64,4543.08,4298.97,3937.95,4249.74,4627.18,4363.08,4640.51,1695,1704,0.271,0,0,0,0,
60,4051.79,4149.23,4084.1,3863.59,4384.62,4187.18,4585.64,4543.59,4292.82,3924.62,4248.72,4624.1,4350.26,4628.72,1694,1704,0.281,0,0,0,0,
61,4048.72,4151.28,4088.72,3875.9,4377.44,4186.15,4586.15,4551.79,4291.28,3927.18,4246.67,4623.59,4347.69,4630.77,1695,1705,0.285,0,0,0,0,
62,4062.05,4157.95,4091.79,3878.46,4374.36,4184.62,4585.13,4548.21,4290.26,3924.62,4246.15,4627.69,4353.85,4635.9,1693,1707,0.289,0,0,0,0,
63,4069.23,4155.38,4091.79,3875.9,4373.85,4181.03,4582.05,4548.72,4297.95,3923.59,4254.36,4631.79,4351.79,4632.82,1693,1707,0.296,0,0,0,0,
64,4062.56,4155.38,4090.26,3875.9,4370.77,4181.03,4582.56,4554.36,4303.59,3934.36,4252.82,4629.23,4349.23,4631.79,1692,1709,0.304,0,0,0,0,
65,4057.95,4157.44,4085.64,3867.69,4372.31,4183.59,4581.54,4543.08,4291.79,3932.82,4235.38,4620,4349.74,4633.85,1693,1711,0.312,0,0,0,0,
66,4054.36,4153.85,4083.08,3856.92,4377.44,4184.1,4579.49,4531.79,4284.62,3922.56,4231.79,4615.38,4346.67,4628.21,1692,1709,0.32,0,0,0,0,
67,4051.79,4150.26,4084.1,3858.46,4375.38,4184.62,4583.08,4544.1,4295.38,3927.18,4237.95,4616.92,4340.51,4616.41,1692,1711,0.327,0,0,0,0,
68,4056.41,4152.82,4082.05,3870.26,4370.77,4184.62,4586.15,4554.87,4298.97,3928.72,4234.36,4615.38,4335.38,4612.82,1692,1710,0.335,0,0,0,0,
69,4060,4153.85,4082.05,3875.9,4376.92,4183.08,4586.67,4548.21,4291.28,3917.44,4238.97,4614.36,4343.59,4626.15,1691,1710,0.343,0,0,0,0,
70,4059.49,4152.82,4083.59,3868.21,4378.46,4183.08,4584.1,4540,4287.69,3918.46,4249.23,4617.95,4357.44,4636.41,1692,1710,0.351,0,0,0,0,
71,4057.95,4151.79,4080.51,3858.97,4372.31,4181.03,4578.46,4536.92,4281.54,3920,4241.03,4615.38,4350.26,4635.38,1690,1712,0.359,0,0,0,0,
72,4054.87,4146.15,4079.49,3861.03,4372.82,4177.95,4575.9,4538.97,4281.54,3909.74,4229.74,4611.28,4339.49,4632.82,1692,1711,0.366,0,0,0,0,
73,4050.77,4136.92,4083.59,3862.05,4377.44,4180,4581.03,4545.13,4293.85,3907.69,4232.82,4613.33,4344.1,4626.15,1690,1712,0.374,0,0,0,0,
74,4050.77,4142.05,4081.54,3859.49,4374.36,4185.13,4583.59,4539.49,4289.74,3913.85,4236.41,4610.77,4347.18,4618.97,1691,1713,0.382,0,0,0,0,
75,4055.38,4154.87,4077.44,3865.13,4371.79,4186.67,4584.1,4533.33,4276.41,3912.31,4234.36,4602.56,4341.03,4620.51,1690,1711,0.39,0,0,0,0,
76,4060,4151.28,4081.03,3869.23,4379.49,4184.62,4586.15,4542.05,4277.44,3907.18,4238.46,4607.18,4330.26,4623.59,1690,1713,0.398,0,0,0,0,
77,4060.51,4145.13,4085.13,3863.08,4382.56,4183.08,4586.15,4549.74,4287.18,3916.92,4249.74,4620,4336.92,4623.59,1691,1713,0.406,0,0,0,0,
78,4053.85,4145.64,4083.08,3858.46,4378.97,4184.62,4584.62,4547.69,4289.74,3931.28,4247.69,4620.51,4360.51,4628.72,1691,1713,0.413,0,0,0,0,
79,4048.72,4146.15,4081.54,3861.54,4380,4186.15,4584.62,4551.28,4287.69,3924.62,4236.41,4615.9,4360,4633.85,1692,1713,0.421,0,0,0,0,
80,4053.85,4150.77,4084.1,3862.56,4382.05,4183.59,4586.67,4556.41,4288.72,3909.74,4233.85,4616.92,4337.44,4633.85,1692,1713,0.429,0,0,0,0,
81,4057.44,4152.31,4084.62,3861.54,4376.92,4183.59,4587.69,4548.72,4288.21,3910.77,4235.38,4617.95,4334.87,4627.18,1692,1711,0.437,0,0,0,0,
82,4052.82,4137.95,4082.56,3862.56,4370.77,4187.18,4586.15,4545.13,4290.77,3919.49,4236.92,4616.92,4351.28,4622.56,1692,1712,0.445,0,0,0,0,
83,4052.82,4135.9,4080.51,3862.05,4375.38,4186.15,4584.1,4549.23,4292.82,3924.1,4245.13,4618.46,4349.74,4628.21,1693,1712,0.452,0,0,0,0,
84,4063.08,4160.51,4080.51,3869.23,4383.08,4184.1,4584.1,4545.64,4290.77,3925.13,4251.28,4617.44,4341.54,4635.38,1692,1713,0.46,0,0,0,0,
85,4072.31,4172.31,4084.62,3877.44,4383.59,4184.62,4584.62,4537.44,4288.72,3926.15,4249.23,4616.92,4349.74,4637.44,1692,1712,0.468,0,0,0,0,
86,4072.31,4157.95,4088.72,3869.23,4380.51,4177.44,4581.54,4536.41,4287.69,3929.23,4248.21,4622.56,4354.87,4637.95,1691,1711,0.476,0,0,0,0,
87,4069.74,4154.36,4093.85,3860.51,4376.41,4167.18,4577.95,4538.46,4285.13,3921.54,4251.28,4623.59,4349.23,4633.33,1689,1709,0.484,0,0,0,0,
88,4072.31,4166.67,4096.92,3873.33,4374.87,4172.82,4578.97,4535.38,4275.9,3910.26,4247.69,4618.97,4342.05,4628.21,1688,1709,0.492,0,0,0,0,
89,4070.77,4169.23,4094.36,3880,4378.46,4185.64,4580,4535.9,4279.49,3919.49,4240.51,4617.44,4343.59,4632.31,1688,1706,0.499,0,0,0,0,
90,4066.67,4165.13,4088.21,3865.13,4383.08,4186.15,4580,4539.49,4288.72,3929.74,4240,4616.41,4350.26,4634.36,1686,1705,0.507,0,0,0,0,
91,4072.82,4166.15,4089.74,3867.69,4380.51,4181.54,4583.08,4544.1,4291.79,3924.1,4248.21,4617.44,4348.72,4631.79,1686,1702,0.515,0,0,0,0,
92,4078.46,4160.51,4092.31,3878.46,4375.9,4182.05,4585.64,4554.87,4306.67,3927.18,4253.33,4623.08,4334.36,4632.82,1684,1702,0.523,0,0,0,0,
93,4077.95,4153.33,4086.67,3867.18,4372.31,4183.08,4584.62,4556.41,4311.28,3928.21,4247.69,4621.03,4333.33,4632.31,1686,1702,0.531,0,0,0,0,
94,4080,4161.54,4085.64,3861.54,4372.82,4183.59,4585.13,4550.26,4295.38,3921.03,4245.64,4614.87,4351.28,4631.79,1685,1701,0.539,0,0,0,0,
95,4080,4173.85,4094.36,3875.38,4378.97,4184.62,4587.69,4552.31,4293.33,3932.31,4252.31,4617.95,4353.85,4633.85,1684,1704,0.546,0,0,0,0,
96,4078.46,4170.26,4094.36,3883.08,4380.51,4185.13,4589.23,4557.44,4305.64,3938.46,4250.77,4618.46,4349.74,4633.85,1686,1704,0.554,0,0,0,0,
97,4077.44,4159.49,4083.59,3873.85,4377.44,4186.15,4587.69,4552.82,4299.49,3924.62,4244.62,4613.85,4353.85,4630.77,1686,1705,0.563,0,0,0,0,
98,4077.95,4163.08,4082.05,3865.64,4376.92,4186.67,4590.77,4553.33,4302.56,3930.26,4251.28,4616.41,4357.44,4634.87,1686,1706,0.57,0,0,0,0,
99,4090.26,4172.82,4089.23,3869.74,4385.13,4187.69,4596.41,4559.49,4321.03,3942.56,4257.95,4618.97,4364.1,4643.59,1686,1707,0.578,0,0,0,0,
100,4091.79,4172.31,4090.77,3879.49,4394.87,4187.69,4592.31,4553.85,4309.23,3932.82,4251.28,4616.41,4366.15,4642.56,1687,1705,0.585,0,0,0,0,
101,4073.85,4175.9,4088.21,3880,4393.85,4187.69,4584.62,4544.1,4290.77,3932.31,4248.72,4615.38,4365.13,4641.03,1686,1706,0.593,0,0,0,0,
102,4074.36,4185.13,4088.72,3875.9,4384.62,4188.72,4586.67,4543.08,4292.31,3938.97,4249.23,4616.41,4367.18,4647.18,1688,1705,0.601,0,0,0,0,
103,4091.28,4181.54,4090.77,3877.44,4382.05,4188.72,4590.26,4545.64,4291.79,3926.15,4248.21,4617.44,4361.54,4649.74,1687,1704,0.609,0,0,0,0,
104,4094.36,4171.79,4089.74,3875.9,4385.13,4185.13,4585.64,4546.67,4287.18,3916.92,4249.74,4616.92,4353.33,4645.64,1687,1704,0.617,0,0,0,0,
105,4086.67,4172.82,4093.33,3875.9,4383.08,4185.64,4585.13,4549.23,4289.74,3927.18,4250.26,4616.92,4355.9,4646.67,1687,1702,0.625,0,0,0,0,
106,4085.13,4179.49,4100.51,3881.03,4383.59,4187.18,4589.23,4552.82,4295.9,3937.95,4256.41,4627.69,4360,4655.9,1687,1704,0.632,0,0,0,0,
107,4096.41,4186.15,4102.05,3881.54,4387.69,4184.1,4587.18,4552.31,4298.97,3935.9,4263.08,4636.92,4360.51,4660.51,1688,1703,0.64,0,0,0,0,
108,4105.64,4188.21,4093.85,3883.59,4386.67,4181.54,4581.03,4544.62,4292.31,3926.67,4255.9,4625.13,4363.59,4649.74,1688,1705,0.648,0,0,0,0,
109,4102.56,4187.69,4090.77,3884.62,4384.62,4182.05,4580,4535.9,4280.51,3925.13,4246.15,4612.31,4366.15,4638.97,1688,1703,0.656,0,0,0,0,
110,4096.41,4187.18,4094.87,3875.9,4383.59,4182.56,4577.44,4534.36,4276.41,3922.05,4241.03,4610.77,4357.95,4643.08,1688,1703,0.664,0,0,0,0,
111,4086.67,4182.05,4089.74,3870.26,4380,4183.08,4571.28,4534.36,4274.87,3908.72,4229.74,4603.59,4342.05,4638.46,1689,1702,0.671,0,0,0,0,
112,4078.97,4180.51,4084.62,3876.41,4380,4184.62,4573.85,4536.92,4280,3915.38,4231.28,4600,4341.03,4627.18,1689,1702,0.679,0,0,0,0,
113,4088.72,4188.21,4091.28,3879.49,4385.13,4186.67,4581.03,4542.05,4286.15,3930.77,4247.18,4609.23,4354.87,4633.85,1690,1702,0.687,0,0,0,0,
114,4093.85,4183.59,4094.36,3876.41,4383.59,4186.15,4582.05,4541.03,4283.59,3925.64,4248.21,4607.69,4350.77,4640.51,1688,1702,0.695,0,0,0,0,
115,4082.05,4172.31,4089.23,3877.44,4378.97,4182.56,4581.54,4543.59,4285.64,3920,4241.54,4600.51,4337.44,4633.33,1689,1703,0.703,0,0,0,0,
116,4081.54,4177.95,4088.21,3879.49,4381.54,4183.08,4586.15,4555.9,4298.97,3924.62,4246.67,4607.18,4335.9,4630.77,1688,1701,0.711,0,0,0,0,
117,4091.79,4189.23,4092.82,3877.95,4387.69,4187.18,4590.26,4555.9,4303.59,3927.69,4250.77,4616.92,4349.23,4634.87,1687,1703,0.718,0,0,0,0,
118,4088.21,4182.56,4093.85,3877.44,4385.64,4185.64,4586.15,4540,4289.74,3927.69,4245.64,4615.38,4360,4632.82,1688,1701,0.726,0,0,0,0,
119,4077.95,4171.79,4093.33,3881.54,4380,4180,4579.49,4532.82,4277.44,3924.1,4244.62,4609.23,4358.46,4634.87,1686,1702,0.734,0,0,0,0,
120,4074.36,4174.87,4089.74,3881.54,4380.51,4181.03,4582.05,4538.97,4285.13,3924.1,4247.69,4611.28,4355.38,4635.9,1685,1703,0.742,0,0,0,0,
121,4077.95,4175.9,4083.59,3869.23,4383.08,4186.15,4587.18,4541.54,4297.95,3938.46,4241.03,4615.9,4352.31,4624.62,1683,1705,0.75,0,0,0,0,
122,4078.46,4167.18,4080.51,3865.13,4380.51,4185.64,4585.64,4539.49,4296.92,3943.08,4232.31,4610.77,4346.15,4617.44,1682,1706,0.757,0,0,0,0,
123,4064.62,4163.59,4080,3875.38,4375.38,4184.1,4582.56,4541.03,4292.31,3925.13,4232.82,4601.03,4339.49,4617.95,1679,1707,0.765,0,0,0,0,
124,4055.9,4167.18,4081.03,3874.36,4371.28,4183.59,4583.08,4541.54,4291.79,3910.26,4234.87,4601.03,4335.38,4616.92,1678,1707,0.773,0,0,0,0,
125,4064.62,4160.51,4081.54,3863.59,4371.79,4181.54,4582.05,4537.44,4287.69,3912.31,4230.77,4601.54,4331.79,4615.9,1677,1707,0.781,0,0,0,0,
126,4069.23,4151.28,4077.95,3863.08,4380.51,4184.62,4584.1,4543.59,4292.31,3926.67,4231.28,4598.46,4335.9,4616.92,1675,1705,0.789,0,0,0,0,
127,4064.62,4160.51,4077.95,3865.64,4383.59,4189.74,4587.69,4553.85,4305.13,3942.05,4242.56,4604.62,4343.59,4615.9,1674,1703,0.797,0,0,0,0,
128,4067.69,4167.69,4083.08,3865.13,4375.38,4185.13,4587.18,4547.18,4301.54,3941.54,4251.28,4612.31,4342.56,4617.95,1673,1703,0.804,0,0,0,0,
0,4069.74,4157.95,4080.51,3866.15,4374.87,4181.03,4584.1,4535.9,4285.13,3924.62,4240,4605.13,4338.97,4614.87,1673,1702,0.812,0,0,0,0,
1,4061.03,4151.28,4073.85,3864.62,4380,4185.13,4584.62,4535.38,4277.44,3917.95,4226.67,4594.87,4336.92,4603.08,1671,1704,0.82,0,0,0,0,
2,4058.97,4157.95,4074.87,3863.59,4375.38,4185.64,4585.64,4538.46,4280.51,3926.67,4232.31,4597.44,4334.87,4602.05,1672,1705,0.828,0,0,0,0,
3,4055.9,4157.44,4075.9,3864.62,4369.23,4183.08,4586.67,4538.46,4281.54,3924.62,4237.44,4600.51,4328.21,4602.05,1671,1704,0.836,0,0,0,0,
4,4048.72,4149.74,4074.36,3859.49,4374.36,4184.62,4588.72,4541.03,4280.51,3916.92,4230.26,4597.95,4321.54,4596.92,1670,1704,0.843,0,0,0,0,
5,4053.85,4154.87,4075.9,3857.95,4380.51,4186.67,4589.74,4542.56,4287.18,3923.59,4229.23,4603.08,4335.9,4605.13,1670,1703,0.851,0,0,0,0,
6,4064.62,4168.72,4076.92,3870.26,4381.54,4187.18,4588.21,4538.97,4294.36,3931.79,4243.08,4609.74,4353.33,4620.51,1670,1703,0.859,0,0,0,0,
7,4063.59,4168.21,4076.92,3876.92,4384.1,4186.15,4586.67,4543.59,4294.36,3929.23,4248.21,4613.85,4349.23,4620.51,1670,1704,0.867,0,0,0,0,
8,4058.46,4157.95,4073.85,3865.64,4383.59,4185.64,4588.21,4553.33,4294.87,3927.69,4238.97,4615.9,4338.97,4615.9,1671,1707,0.875,0,0,0,0,
9,4061.54,4159.49,4066.67,3862.56,4376.92,4186.67,4587.18,4546.15,4294.87,3928.72,4230.26,4607.69,4337.95,4615.9,1670,1706,0.883,0,0,0,0,
10,4064.62,4168.21,4064.62,3870.26,4375.38,4185.13,4585.64,4535.38,4291.28,3923.59,4230.26,4601.03,4335.38,4617.44,1670,1705,0.89,0,0,0,0,
11,4068.21,4166.67,4070.77,3867.18,4376.92,4182.05,4590.77,4548.21,4293.85,3923.59,4235.9,4609.74,4335.9,4621.54,1670,1705,0.898,0,0,0,0,
12,4070.77,4160,4073.33,3867.18,4376.92,4183.59,4594.36,4557.95,4298.97,3930.26,4241.54,4618.97,4345.13,4628.21,1671,1706,0.906,0,0,0,0,
13,4071.79,4157.95,4072.31,3877.95,4377.95,4187.18,4588.21,4541.54,4293.85,3925.64,4242.05,4613.85,4349.23,4630.77,1671,1705,0.914,0,0,0,0,
14,4083.59,4168.72,4078.46,3877.95,4377.44,4185.13,4584.1,4533.33,4287.69,3918.97,4240,4613.33,4346.15,4641.03,1672,1703,0.922,0,0,0,0,
15,4110.77,4185.13,4086.15,3876.41,4377.44,4182.05,4586.67,4549.23,4292.82,3923.08,4248.21,4623.08,4349.23,4665.64,1671,1702,0.93,0,0,0,0,
16,4134.36,4188.72,4093.33,3882.56,4379.49,4183.59,4586.67,4557.44,4297.95,3928.72,4258.97,4631.79,4366.67,4690.26,1672,1700,0.937,0,0,0,0,
17,4144.62,4188.21,4102.05,3884.1,4377.95,4185.64,4585.13,4546.15,4295.9,3934.36,4265.13,4640,4386.67,4709.74,1671,1697,0.945,0,0,0,0,
18,4160.51,4190.26,4107.18,3882.05,4374.87,4184.62,4587.18,4539.49,4291.79,3942.56,4273.85,4647.69,4397.44,4731.79,1669,1697,0.953,0,0,0,0,
19,4173.33,4181.54,4104.1,3882.56,4374.87,4182.05,4586.67,4548.21,4291.79,3944.62,4274.87,4650.26,4398.97,4746.15,1670,1696,0.961,0,0,0,0,
20,4164.1,4168.21,4103.08,3878.97,4370.77,4184.1,4587.18,4556.41,4298.97,3941.54,4274.36,4648.21,4398.46,4747.18,1667,1698,0.969,0,0,0,0,
21,4148.72,4166.15,4106.67,3875.38,4366.15,4184.1,4589.23,4551.79,4302.56,3942.05,4282.05,4651.28,4406.15,4750.77,1668,1699,0.976,0,0,0,0,
22,4150.26,4168.21,4107.18,3875.9,4372.31,4178.46,4587.18,4543.59,4298.46,3943.59,4285.64,4657.44,4417.44,4754.87,1665,1700,0.984,0,0,0,0,
23,4157.44,4164.62,4104.1,3871.79,4374.87,4173.85,4585.64,4538.46,4291.79,3942.56,4282.05,4658.46,4415.38,4749.74,1665,1702,0.992,0,0,0,0,
24,4149.23,4154.36,4099.49,3865.64,4368.21,4171.28,4587.18,4540.51,4294.87,3939.49,4284.1,4660.51,4411.79,4750.77,1665,1702,1,0,0,0,0,
25,4131.79,4140,4093.85,3862.56,4369.23,4175.38,4588.72,4554.36,4309.23,3946.15,4287.18,4664.1,4416.41,4758.97,1664,1703,1.008,0,0,0,0,
26,4119.49,4135.9,4090.26,3862.05,4376.41,4182.56,4587.69,4553.85,4307.18,3952.82,4280,4656.92,4414.87,4752.31,1664,1704,1.015,0,0,0,0,
27,4111.28,4141.54,4090.26,3863.08,4377.95,4183.08,4587.69,4543.08,4292.82,3947.69,4276.41,4647.69,4408.21,4739.49,1663,1707,1.024,0,0,0,0,
28,4097.95,4141.03,4088.72,3865.13,4376.92,4182.56,4589.74,4547.69,4296.92,3943.59,4281.03,4647.69,4407.69,4734.87,1662,1704,1.031,0,0,0,0,
29,4088.72,4137.95,4083.08,3864.1,4380.51,4186.67,4587.69,4552.31,4305.13,3944.62,4281.54,4643.08,4411.79,4727.18,1659,1704,1.039,0,0,0,0,
30,4090.26,4137.95,4078.97,3860,4382.56,4188.72,4587.69,4545.64,4300.51,3950.26,4276.41,4633.33,4413.85,4711.79,1658,1699,1.047,0,0,0,0,
31,4080.51,4135.9,4075.9,3851.79,4377.95,4188.21,4595.38,4550.77,4306.15,3958.97,4272.82,4631.28,4405.64,4697.44,1654,1697,1.055,0,0,0,0,
32,4061.03,4134.36,4067.18,3846.67,4378.46,4188.21,4594.87,4558.97,4313.85,3957.95,4279.49,4633.85,4392.82,4690.26,1653,1695,1.062,0,0,0,0,
33,4051.79,4134.87,4063.08,3854.36,4384.62,4184.1,4584.62,4553.85,4310.77,3956.92,4281.03,4632.82,4399.49,4685.64,1650,1695,1.07,0,0,0,0,
34,4046.67,4134.36,4071.79,3862.56,4386.15,4182.05,4584.62,4554.87,4315.38,3961.54,4267.69,4629.74,4413.33,4680,1648,1698,1.078,0,0,0,0,
35,4047.69,4137.95,4076.41,3862.56,4382.56,4183.59,4588.72,4560.51,4315.9,3951.79,4259.49,4629.23,4406.67,4677.44,1646,1699,1.086,0,0,0,0,
36,4061.54,4141.03,4068.72,3860.51,4382.56,4183.59,4585.13,4554.36,4298.46,3937.95,4267.18,4632.31,4391.28,4680,1644,1701,1.094,0,0,0,0,
37,4066.15,4137.44,4064.62,3855.38,4385.13,4185.13,4585.13,4550.77,4290.26,3935.38,4269.23,4631.79,4388.72,4675.38,1642,1699,1.102,0,0,0,0,
38,4058.46,4132.82,4066.67,3849.74,4381.54,4185.13,4588.21,4553.85,4296.41,3929.23,4260,4626.15,4391.28,4665.13,1641,1700,1.109,0,0,0,0,
39,4053.33,4137.44,4068.21,3849.74,4380,4184.62,4588.72,4554.36,4301.03,3928.72,4257.44,4620,4382.56,4662.05,1639,1699,1.117,0,0,0,0,
40,4044.1,4137.95,4065.13,3848.72,4383.08,4186.67,4593.85,4557.44,4308.72,3940.51,4254.36,4616.92,4372.31,4656.92,1637,1700,1.125,0,0,0,0,
41,4031.28,4125.64,4060,3845.13,4380.51,4186.15,4595.38,4561.54,4309.74,3942.05,4245.13,4615.38,4371.79,4647.69,1637,1699,1.133,0,0,0,0,
42,4031.28,4121.54,4058.97,3847.18,4373.85,4183.08,4587.69,4557.95,4297.95,3935.9,4247.18,4614.36,4369.74,4647.69,1635,1698,1.141,0,0,0,0,
43,4038.46,4132.82,4065.13,3849.23,4374.36,4185.13,4586.15,4552.82,4296.92,3939.49,4264.1,4620.51,4367.69,4656.41,1636,1698,1.148,0,0,0,0,
44,4043.59,4141.03,4069.23,3850.26,4381.03,4188.72,4591.28,4555.38,4304.1,3939.49,4265.13,4626.67,4375.9,4661.03,1635,1695,1.156,0,0,0,0,
45,4044.1,4136.92,4065.13,3849.23,4381.54,4186.67,4589.23,4554.87,4300.51,3928.72,4247.18,4619.49,4378.97,4651.79,1635,1696,1.164,0,0,0,0,
46,4042.05,4132.82,4061.54,3845.64,4378.97,4184.1,4585.64,4549.23,4296.41,3928.21,4247.69,4613.33,4367.69,4642.56,1637,1695,1.172,0,0,0,0,
47,4044.62,4135.38,4069.23,3851.79,4379.49,4186.15,4587.69,4550.77,4304.1,3942.56,4265.64,4626.67,4373.85,4656.92,1635,1697,1.18,0,0,0,0,
48,4055.38,4144.1,4077.44,3863.59,4383.59,4186.15,4589.74,4554.36,4308.72,3948.72,4268.21,4636.41,4394.36,4676.41,1637,1698,1.189,0,0,0,0,
49,4069.23,4152.31,4076.92,3867.18,4387.18,4184.62,4587.69,4549.23,4306.15,3943.59,4257.44,4629.74,4402.56,4674.87,1637,1698,1.195,0,0,0,0,
50,4073.33,4154.87,4078.97,3863.59,4385.13,4186.15,4587.18,4545.64,4309.23,3952.31,4266.15,4633.33,4402.05,4673.85,1639,1698,1.203,0,0,0,0,
51,4066.67,4155.9,4084.62,3862.56,4383.08,4186.15,4590.77,4553.33,4316.41,3965.64,4276.92,4644.1,4401.54,4680.51,1641,1699,1.211,0,0,0,0,
52,4068.72,4156.92,4080.51,3864.1,4386.15,4183.08,4590.26,4557.95,4314.36,3958.46,4267.69,4641.54,4394.87,4679.49,1644,1700,1.219,0,0,0,0,
53,4068.72,4153.33,4072.31,3864.1,4394.36,4190.77,4589.23,4551.79,4298.97,3942.05,4259.49,4630.26,4384.62,4672.82,1646,1701,1.227,0,0,0,0,
54,4053.33,4146.67,4069.74,3862.56,4394.87,4199.49,4592.31,4550.26,4292.82,3936.92,4265.64,4625.64,4378.46,4667.69,1648,1702,1.234,0,0,0,0,
55,4049.23,4148.21,4066.15,3859.49,4388.72,4191.28,4590.26,4556.92,4302.56,3946.67,4267.69,4627.69,4380,4663.59,1650,1702,1.242,0,0,0,0,
56,4062.05,4155.38,4064.62,3863.08,4393.33,4183.08,4586.15,4557.44,4309.23,3958.97,4262.56,4628.21,4390.26,4661.03,1652,1705,1.25,0,0,0,0,
57,4061.03,4157.44,4070.77,3868.72,4399.49,4186.67,4590.26,4554.87,4307.69,3958.97,4260.51,4623.08,4393.33,4655.9,1655,1704,1.258,0,0,0,0,
58,4052.31,4157.95,4071.79,3868.72,4392.82,4188.72,4595.9,4556.92,4306.67,3943.59,4257.95,4618.97,4381.54,4648.72,1655,1704,1.266,0,0,0,0,
59,4052.31,4155.9,4065.64,3866.15,4385.13,4187.18,4592.82,4555.38,4303.08,3930.77,4250.26,4616.92,4370.77,4638.97,1657,1702,1.274,0,0,0,0,
60,4043.08,4141.03,4056.92,3854.36,4381.54,4188.21,4587.18,4551.28,4295.38,3926.67,4235.38,4606.67,4358.97,4625.13,1658,1700,1.281,0,0,0,0,
61,4032.82,4129.74,4051.28,3843.59,4376.41,4187.69,4588.72,4550.77,4288.72,3921.54,4231.79,4596.41,4351.79,4622.05,1659,1698,1.289,0,0,0,0,
62,4043.08,4142.05,4053.33,3851.28,4378.46,4185.64,4595.38,4553.85,4291.79,3921.54,4247.18,4602.05,4355.9,4633.85,1659,1697,1.297,0,0,0,0,
63,4047.69,4153.33,4057.95,3864.62,4387.69,4187.69,4594.36,4556.92,4296.92,3926.67,4245.64,4605.64,4355.9,4631.79,1662,1698,1.305,0,0,0,0,
64,4040,4153.85,4059.49,3863.08,4388.72,4187.69,4589.23,4555.38,4296.41,3926.15,4232.31,4600.51,4353.85,4623.08,1663,1702,1.313,0,0,0,0,
65,4048.21,4155.9,4061.03,3860,4384.62,4182.56,4584.62,4546.67,4295.38,3926.15,4238.46,4602.05,4366.15,4631.28,1665,1703,1.321,0,0,0,0,
66,4055.9,4155.9,4060.51,3868.21,4382.56,4180.51,4574.87,4535.38,4293.85,3927.69,4241.03,4603.59,4371.28,4636.41,1665,1705,1.328,0,0,0,0,
67,4046.15,4150.77,4057.44,3869.23,4383.08,4184.1,4571.79,4534.36,4292.82,3925.13,4233.33,4599.49,4357.95,4629.74,1667,1705,1.336,0,0,0,0,
68,4047.69,4152.82,4058.97,3862.05,4387.69,4187.18,4582.05,4547.18,4301.54,3929.23,4243.59,4602.05,4356.41,4631.28,1667,1707,1.344,0,0,0,0,
69,4053.85,4154.87,4056.41,3860,4386.15,4185.64,4585.64,4556.92,4311.28,3936.41,4251.28,4608.21,4363.08,4633.85,1668,1706,1.352,0,0,0,0,
70,4046.15,4151.79,4051.28,3863.59,4382.05,4183.08,4582.56,4554.87,4313.33,3945.13,4243.08,4611.79,4364.62,4631.28,1667,1705,1.36,0,0,0,0,
71,4046.15,4154.36,4055.9,3862.56,4384.62,4189.23,4587.18,4559.49,4314.87,3955.38,4247.69,4616.92,4370.26,4640.51,1668,1703,1.367,0,0,0,0,
72,4049.74,4152.82,4061.54,3851.79,4384.62,4195.9,4592.82,4570.26,4312.31,3952.31,4253.85,4617.95,4380,4655.38,1667,1702,1.375,0,0,0,0,
73,4037.95,4141.03,4060.51,3845.13,4380.51,4190.26,4589.74,4569.23,4309.74,3941.54,4249.23,4617.95,4390.26,4660.51,1668,1703,1.383,0,0,0,0,
74,4030.77,4133.33,4059.49,3849.74,4382.56,4184.62,4588.21,4566.15,4317.95,3941.54,4251.28,4619.49,4393.33,4655.38,1666,1702,1.391,0,0,0,0,
75,4043.59,4133.85,4062.05,3849.23,4387.69,4189.23,4589.23,4567.18,4318.97,3944.1,4262.05,4620,4381.03,4647.18,1665,1704,1.399,0,0,0,0,
76,4050.26,4135.9,4064.1,3845.64,4384.62,4190.26,4588.21,4560,4309.23,3943.59,4270.26,4626.67,4381.03,4653.33,1666,1704,1.407,0,0,0,0,
77,4042.05,4137.95,4062.05,3852.31,4381.03,4185.13,4586.67,4553.33,4315.38,3948.72,4262.05,4630.77,4395.9,4665.13,1666,1705,1.414,0,0,0,0,
78,4032.31,4137.44,4057.95,3855.9,4384.1,4184.1,4586.67,4554.87,4323.08,3949.23,4250.26,4620.51,4387.69,4658.46,1667,1705,1.422,0,0,0,0,
79,4032.82,4133.85,4060,3851.28,4380.51,4184.1,4586.15,4553.85,4313.85,3941.54,4253.85,4612.82,4372.82,4650.77,1667,1705,1.43,0,0,0,0,
80,4041.03,4136.41,4066.67,3857.44,4374.36,4183.08,4585.64,4551.79,4308.21,3938.46,4260,4620,4384.1,4659.49,1667,1705,1.438,0,0,0,0,
81,4047.69,4140.51,4068.72,3865.13,4372.31,4183.08,4586.15,4556.92,4315.38,3941.54,4259.49,4626.15,4396.92,4660.51,1667,1704,1.446,0,0,0,0,
82,4050.26,4137.95,4070.26,3856.41,4374.36,4183.08,4588.72,4569.23,4325.64,3953.85,4261.54,4628.21,4393.85,4655.38,1668,1702,1.453,0,0,0,0,
83,4052.31,4144.62,4074.36,3853.33,4381.03,4185.13,4591.79,4572.82,4327.18,3957.44,4267.18,4632.31,4391.28,4661.03,1667,1701,1.461,0,0,0,0,
84,4053.85,4152.31,4077.44,3862.56,4382.05,4184.62,4589.23,4562.05,4317.44,3943.59,4265.64,4633.85,4390.77,4666.67,1668,1702,1.469,0,0,0,0,
85,4049.23,4142.05,4075.9,3862.56,4374.87,4184.1,4587.18,4555.9,4308.21,3935.38,4256.92,4627.69,4384.62,4661.03,1668,1702,1.477,0,0,0,0,
86,4053.33,4138.46,4074.36,3860,4374.87,4184.1,4587.69,4553.85,4305.13,3940,4254.87,4625.13,4377.95,4657.44,1668,1704,1.485,0,0,0,0,
87,4068.21,4152.82,4076.92,3862.05,4382.56,4184.1,4586.15,4550.77,4308.72,3942.05,4262.56,4633.33,4382.05,4663.08,1669,1704,1.492,0,0,0,0,
88,4073.33,4156.41,4075.38,3860.51,4383.08,4186.15,4587.18,4558.97,4317.95,3940.51,4263.08,4633.85,4396.41,4665.64,1668,1707,1.5,0,0,0,0,
89,4069.23,4148.72,4074.36,3859.49,4380.51,4188.72,4589.74,4565.64,4323.08,3943.08,4260,4626.15,4399.49,4663.59,1669,1707,1.508,0,0,0,0,
90,4062.05,4152.82,4073.85,3863.08,4381.54,4187.18,4585.13,4552.82,4315.38,3949.23,4267.18,4624.62,4391.79,4661.03,1668,1706,1.516,0,0,0,0,
91,4052.82,4157.44,4071.79,3864.62,4381.54,4186.15,4587.18,4552.82,4319.49,3954.36,4271.28,4628.21,4393.33,4661.03,1668,1706,1.524,0,0,0,0,
92,4051.79,4153.33,4066.15,3863.08,4381.03,4189.23,4596.41,4570.26,4333.33,3959.49,4266.15,4625.64,4399.49,4663.59,1667,1705,1.532,0,0,0,0,
93,4058.97,4153.85,4062.05,3860.51,4383.08,4188.72,4592.82,4563.08,4324.62,3956.92,4258.46,4616.92,4395.38,4658.97,1665,1705,1.539,0,0,0,0,
94,4060,4155.9,4064.62,3853.33,4384.1,4185.13,4586.67,4555.38,4318.46,3946.67,4259.49,4616.92,4392.82,4654.36,1663,1704,1.547,0,0,0,0,
95,4052.82,4151.79,4068.21,3851.28,4382.05,4185.64,4591.28,4567.69,4329.74,3943.08,4267.18,4623.08,4394.87,4656.41,1662,1703,1.555,0,0,0,0,
96,4048.21,4149.23,4068.72,3859.49,4379.49,4186.67,4593.33,4564.62,4327.18,3948.21,4260.51,4620,4394.87,4652.31,1662,1702,1.563,0,0,0,0,
97,4042.56,4152.82,4066.15,3865.13,4381.03,4184.62,4587.18,4549.23,4309.23,3943.59,4245.13,4612.31,4388.21,4641.03,1660,1703,1.571,0,0,0,0,
98,4041.03,4152.82,4065.13,3857.95,4381.54,4183.08,4584.62,4547.18,4301.54,3929.74,4247.18,4613.33,4377.95,4643.08,1661,1703,1.579,0,0,0,0,
99,4046.67,4148.72,4064.62,3850.77,4378.97,4186.15,4585.13,4546.67,4300,3926.15,4252.82,4612.82,4374.36,4645.64,1660,1706,1.586,0,0,0,0,
100,4051.79,4150.26,4061.54,3855.9,4380.51,4186.67,4584.62,4541.03,4298.97,3927.18,4244.62,4609.23,4374.87,4635.9,1660,1706,1.594,0,0,0,0,
101,4050.26,4153.85,4060,3862.56,4386.15,4185.13,4584.1,4547.69,4306.67,3926.15,4243.08,4608.72,4372.82,4630.26,1660,1707,1.602,0,0,0,0,
102,4045.13,4152.82,4060.51,3861.03,4390.26,4184.62,4583.08,4552.31,4310.26,3927.18,4248.72,4608.21,4370.77,4630.26,1661,1707,1.61,0,0,0,0,
103,4044.1,4151.79,4062.56,3862.05,4387.69,4184.62,4583.08,4549.74,4307.69,3926.15,4248.72,4608.21,4373.33,4630.77,1660,1705,1.618,0,0,0,0,
104,4043.08,4153.85,4064.62,3867.18,4382.56,4184.62,4587.18,4552.31,4313.33,3926.15,4247.18,4609.23,4375.38,4632.82,1659,1704,1.625,0,0,0,0,
105,4046.67,4156.41,4068.21,3868.72,4380,4184.62,4585.13,4552.82,4316.92,3933.85,4245.13,4609.23,4376.92,4635.38,1659,1702,1.633,0,0,0,0,
106,4052.31,4154.87,4067.18,3858.97,4377.44,4183.59,4580,4548.21,4310.26,3941.03,4246.15,4608.72,4378.97,4633.33,1658,1700,1.641,0,0,0,0,
107,4049.74,4149.23,4063.59,3850.77,4376.41,4184.62,4583.59,4551.28,4308.21,3938.97,4247.69,4607.18,4371.79,4629.74,1658,1699,1.649,0,0,0,0,
108,4050.26,4153.85,4067.18,3858.46,4381.03,4186.67,4587.69,4558.46,4314.87,3936.92,4247.69,4611.79,4367.69,4633.33,1657,1701,1.657,0,0,0,0,
109,4059.49,4165.13,4068.21,3869.23,4383.59,4185.13,4585.13,4555.38,4315.38,3935.9,4247.69,4619.49,4374.36,4640,1659,1701,1.665,0,0,0,0,
110,4060.51,4159.49,4064.1,3867.69,4381.54,4185.13,4584.62,4549.74,4313.33,3930.26,4248.21,4612.82,4375.38,4636.41,1658,1703,1.672,0,0,0,0,
111,4053.85,4151.79,4063.59,3864.1,4382.56,4186.67,4587.69,4553.85,4318.97,3927.18,4247.18,4604.1,4366.67,4628.72,1660,1704,1.68,0,0,0,0,
112,4063.59,4163.59,4068.72,3865.13,4385.13,4189.23,4588.72,4557.44,4326.67,3934.36,4247.69,4609.23,4366.67,4633.33,1661,1705,1.688,0,0,0,0,
113,4074.87,4173.85,4069.74,3863.59,4382.56,4191.28,4589.23,4556.41,4328.21,3946.15,4253.33,4616.41,4370.26,4645.13,1662,1708,1.696,0,0,0,0,
114,4066.67,4168.72,4065.64,3861.54,4380,4192.31,4588.72,4555.38,4326.67,3951.28,4255.38,4616.92,4370.26,4648.72,1664,1709,1.704,0,0,0,0,
115,4061.54,4166.67,4066.15,3871.28,4379.49,4187.69,4587.18,4554.87,4325.13,3945.64,4250.26,4614.87,4379.49,4646.15,1664,1710,1.711,0,0,0,0,
116,4073.33,4170.26,4072.82,3878.97,4378.46,4182.56,4586.67,4554.36,4319.49,3942.56,4247.18,4616.41,4388.21,4647.18,1666,1708,1.719,0,0,0,0,
117,4073.85,4170.77,4073.33,3870.77,4377.95,4185.13,4585.64,4552.31,4314.87,3943.08,4247.69,4615.9,4384.1,4645.64,1667,1707,1.727,0,0,0,0,
118,4057.44,4168.72,4065.13,3858.46,4379.49,4188.72,4587.18,4553.33,4317.44,3937.44,4248.72,4607.18,4377.95,4635.9,1669,1706,1.735,0,0,0,0,
119,4058.46,4165.13,4065.64,3861.03,4384.1,4186.15,4587.18,4553.85,4315.38,3933.33,4247.69,4604.1,4381.03,4631.79,1670,1708,1.743,0,0,0,0,
120,4078.97,4171.28,4074.87,3871.79,4387.18,4181.03,4575.38,4543.08,4302.56,3937.95,4248.72,4614.87,4389.23,4645.13,1670,1708,1.751,0,0,0,0,
121,4085.64,4184.1,4079.49,3875.9,4384.62,4180,4569.23,4536.92,4304.1,3941.54,4256.92,4623.59,4388.72,4658.97,1671,1709,1.758,0,0,0,0,
122,4075.38,4187.18,4077.44,3877.44,4382.05,4182.05,4577.44,4548.21,4318.46,3945.64,4264.1,4621.03,4377.44,4657.44,1671,1708,1.766,0,0,0,0,
123,4067.69,4180.51,4069.74,3878.97,4382.05,4183.08,4584.62,4554.36,4317.44,3945.13,4255.9,4615.9,4380,4647.69,1671,1708,1.774,0,0,0,0,
124,4066.67,4181.54,4067.69,3871.79,4381.03,4180.51,4583.08,4546.15,4308.72,3936.41,4246.15,4613.33,4386.15,4640.51,1671,1708,1.782,0,0,0,0,
125,4071.28,4187.18,4075.38,3860.51,4383.59,4178.46,4577.44,4541.54,4308.72,3932.82,4248.72,4614.87,4375.38,4637.95,1673,1710,1.791,0,0,0,0,
126,4080,4181.03,4076.92,3865.64,4387.18,4183.08,4577.44,4544.1,4310.26,3932.82,4251.28,4614.36,4369.23,4638.97,1675,1711,1.797,0,0,0,0,
127,4079.49,4175.9,4068.21,3880.51,4387.18,4185.64,4583.59,4550.77,4310.77,3928.21,4246.67,4610.26,4372.31,4643.59,1675,1715,1.805,0,0,0,0,
128,4065.64,4176.92,4065.64,3875.9,4387.69,4184.62,4587.18,4553.85,4311.28,3925.64,4236.41,4608.21,4368.72,4643.08,1678,1715,1.813,0,0,0,0,
0,4057.44,4178.46,4067.18,3871.28,4387.18,4186.67,4583.08,4544.1,4305.13,3927.69,4232.31,4604.1,4367.18,4635.9,1677,1717,1.821,0,0,0,0,
1,4059.49,4180,4060,3877.95,4385.13,4187.18,4582.56,4540.51,4305.13,3925.13,4242.05,4600.51,4371.79,4632.82,1680,1717,1.829,0,0,0,0,
2,4056.41,4179.49,4057.95,3871.79,4387.18,4184.1,4585.64,4550.77,4316.41,3924.62,4246.67,4601.54,4367.69,4632.31,1681,1716,1.837,0,0,0,0,
3,4064.1,4182.05,4068.21,3865.64,4387.18,4185.13,4585.64,4556.92,4317.44,3934.36,4246.67,4609.74,4363.59,4631.28,1681,1716,1.844,0,0,0,0,
4,4084.1,4186.15,4077.44,3877.95,4383.08,4187.18,4585.13,4550.77,4310.77,3940.51,4249.74,4617.44,4370.77,4633.33,1683,1715,1.852,0,0,0,0,
5,4080,4177.95,4072.31,3875.9,4384.1,4185.64,4583.08,4541.03,4310.26,3936.92,4241.54,4609.74,4374.36,4633.85,1684,1714,1.86,0,0,0,0,
6,4061.03,4167.18,4061.54,3863.08,4385.13,4185.64,4582.56,4541.03,4308.72,3928.72,4233.33,4598.97,4368.72,4628.72,1685,1714,1.868,0,0,0,0,
7,4066.15,4179.49,4066.15,3873.33,4381.03,4187.18,4586.67,4552.31,4311.28,3924.1,4245.13,4608.72,4368.72,4635.38,1685,1713,1.876,0,0,0,0,
8,4081.03,4190.26,4076.92,3883.08,4382.05,4187.69,4590.26,4560.51,4322.56,3934.87,4256.41,4622.56,4385.13,4650.26,1686,1711,1.884,0,0,0,0,
9,4077.44,4178.46,4073.33,3874.87,4383.08,4184.1,4589.74,4555.9,4321.54,3945.13,4248.72,4620,4387.18,4653.85,1686,1710,1.891,0,0,0,0,
10,4066.15,4172.31,4063.59,3874.87,4381.54,4182.05,4587.18,4552.31,4310.26,3935.9,4244.62,4613.33,4355.38,4647.18,1688,1707,1.899,0,0,0,0,
11,4067.69,4174.36,4065.64,3880,4387.18,4184.62,4586.67,4555.9,4311.28,3931.79,4252.31,4612.31,4346.67,4644.1,1686,1706,1.907,0,0,0,0,
12,4075.38,4167.18,4068.21,3871.28,4392.82,4185.64,4587.18,4556.41,4314.87,3944.1,4245.13,4610.26,4379.49,4638.97,1688,1704,1.915,0,0,0,0,
13,4070.77,4166.67,4063.59,3862.56,4386.67,4182.56,4587.18,4551.28,4309.23,3938.46,4233.33,4605.64,4393.85,4634.36,1687,1703,1.923,0,0,0,0,
14,4059.49,4177.95,4061.03,3869.74,4378.97,4181.54,4586.15,4551.28,4311.79,3929.23,4245.64,4609.74,4374.36,4638.97,1687,1705,1.93,0,0,0,0,
15,4068.21,4184.1,4066.15,3882.05,4381.54,4182.56,4583.59,4557.95,4324.1,3945.64,4259.49,4618.97,4370.77,4642.56,1687,1706,1.938,0,0,0,0,
16,4080.51,4182.05,4069.23,3883.59,4383.59,4182.56,4583.08,4551.28,4317.44,3953.33,4250.26,4613.33,4378.97,4636.41,1687,1707,1.946,0,0,0,0,
17,4071.28,4183.08,4063.59,3875.9,4382.05,4182.05,4584.1,4536.41,4295.38,3932.82,4239.49,4599.49,4368.21,4628.21,1688,1707,1.954,0,0,0,0,
18,4066.67,4183.59,4060.51,3874.36,4386.67,4182.05,4583.59,4535.9,4296.92,3923.08,4242.05,4604.1,4366.15,4632.82,1688,1708,1.962,0,0,0,0,
19,4077.95,4184.62,4066.67,3880.51,4393.85,4183.08,4583.59,4549.23,4317.44,3935.9,4247.18,4615.38,4375.9,4642.56,1688,1707,1.97,0,0,0,0,
20,4076.41,4185.13,4069.74,3881.03,4393.85,4185.64,4583.59,4553.85,4319.49,3944.1,4247.69,4609.74,4377.95,4641.03,1687,1708,1.977,0,0,0,0,
21,4060,4177.44,4062.05,3869.74,4393.33,4186.15,4583.08,4544.1,4309.74,3935.9,4240.51,4599.49,4375.9,4633.33,1688,1708,1.985,0,0,0,0,
22,4047.18,4166.67,4053.33,3860,4395.9,4185.13,4584.62,4540,4306.67,3925.64,4229.74,4598.46,4368.21,4623.08,1686,1708,1.993,0,0,0,0,
23,4042.56,4165.64,4051.79,3866.15,4397.44,4185.64,4584.1,4541.54,4303.08,3923.08,4230.26,4597.95,4351.28,4614.36,1686,1708,2.001,0,0,0,0,
24,4054.87,4175.38,4060.51,3877.95,4399.49,4185.13,4580.51,4537.95,4300.51,3924.62,4242.56,4598.97,4350.26,4618.46,1686,1707,2.009,0,0,0,0,
25,4069.23,4184.62,4067.69,3881.54,4403.08,4184.62,4583.08,4543.59,4309.74,3936.92,4247.69,4602.56,4372.31,4631.79,1685,1708,2.016,0,0,0,0,
26,4066.15,4185.13,4064.62,3878.46,4403.59,4186.67,4589.23,4557.44,4315.38,3944.1,4243.59,4602.05,4376.41,4632.31,1686,1709,2.024,0,0,0,0,
27,4065.13,4183.59,4068.21,3878.46,4399.49,4185.13,4584.62,4546.67,4303.08,3929.74,4243.59,4602.05,4368.21,4632.82,1685,1710,2.032,0,0,0,0,
28,4077.44,4189.23,4077.95,3880.51,4397.44,4180.51,4577.95,4533.33,4292.82,3921.03,4249.74,4612.82,4373.33,4648.21,1687,1710,2.04,0,0,0,0,
29,4080.51,4189.74,4077.95,3880.51,4399.49,4181.03,4583.08,4544.1,4298.46,3926.67,4250.77,4620,4374.36,4653.33,1686,1710,2.048,0,0,0,0,
30,4078.46,4186.15,4073.33,3880,4401.54,4184.62,4586.67,4549.23,4302.56,3926.67,4242.05,4615.38,4375.9,4643.08,1687,1711,2.056,0,0,0,0,
31,4080.51,4191.28,4075.9,3878.97,4398.97,4182.05,4584.1,4538.97,4298.46,3930.77,4245.13,4612.82,4378.46,4643.08,1687,1712,2.063,0,0,0,0,
32,4080.51,4193.33,4081.54,3878.46,4399.49,4185.64,4585.13,4536.92,4298.46,3944.62,4260,4618.46,4372.31,4652.82,1688,1710,2.071,0,0,0,0,
33,4085.13,4188.72,4079.49,3880.51,4403.59,4194.36,4587.69,4547.18,4305.13,3944.1,4255.38,4616.41,4373.85,4646.15,1687,1709,2.079,0,0,0,0,
34,4086.15,4186.67,4071.79,3885.64,4399.49,4191.28,4587.69,4554.36,4310.26,3931.79,4240.51,4606.67,4385.13,4634.36,1688,1708,2.087,0,0,0,0,
35,4077.95,4188.72,4071.28,3881.54,4394.87,4183.59,4587.69,4556.41,4313.33,3933.33,4245.64,4606.67,4386.67,4644.62,1688,1706,2.095,0,0,0,0,
36,4066.15,4187.18,4076.41,3867.69,4395.9,4185.64,4587.18,4553.85,4313.33,3944.1,4253.85,4616.41,4383.59,4657.44,1687,1706,2.102,0,0,0,0,
37,4060.51,4181.54,4074.87,3867.18,4392.82,4189.23,4586.67,4550.77,4310.26,3945.64,4248.21,4619.49,4386.67,4648.72,1688,1705,2.11,0,0,0,0,
38,4067.69,4181.03,4072.82,3878.46,4388.21,4186.67,4586.67,4554.36,4314.36,3943.59,4247.69,4614.87,4384.62,4641.03,1687,1707,2.118,0,0,0,0,
39,4074.36,4184.1,4075.38,3881.03,4390.77,4183.59,4586.15,4555.9,4320.51,3947.69,4251.79,4615.9,4380.51,4648.21,1688,1707,2.126,0,0,0,0,
40,4070.26,4186.15,4071.28,3875.38,4391.79,4183.59,4586.15,4555.38,4318.46,3956.41,4252.82,4618.46,4383.08,4652.31,1687,1708,2.134,0,0,0,0,
41,4064.62,4185.13,4064.62,3876.92,4386.15,4180.51,4583.59,4551.28,4310.77,3951.28,4250.26,4609.74,4384.1,4645.64,1688,1709,2.142,0,0,0,0,
42,4060,4184.1,4064.1,3877.44,4385.13,4174.36,4574.36,4542.56,4300.51,3931.28,4243.08,4597.95,4376.92,4638.97,1687,1709,2.15,0,0,0,0,
43,4056.41,4183.59,4068.21,3875.9,4388.21,4172.82,4572.31,4537.44,4296.92,3928.72,4251.79,4605.13,4371.28,4640,1688,1711,2.157,0,0,0,0,
44,4067.18,4182.56,4070.26,3877.44,4386.15,4180,4581.54,4541.03,4304.1,3944.1,4261.54,4620.51,4375.38,4642.05,1688,1711,2.165,0,0,0,0,
45,4075.9,4182.05,4067.69,3870.26,4386.15,4183.59,4583.08,4543.59,4304.1,3935.9,4241.03,4612.31,4373.33,4633.33,1687,1711,2.173,0,0,0,0,
46,4068.72,4182.05,4069.23,3867.18,4387.18,4181.03,4577.95,4540.51,4296.41,3919.49,4229.74,4602.56,4372.31,4632.82,1687,1709,2.181,0,0,0,0,
47,4066.15,4184.1,4075.38,3877.44,4387.18,4181.54,4580,4541.03,4300.51,3932.82,4250.77,4616.41,4381.03,4648.72,1687,1709,2.188,0,0,0,0,
48,4063.59,4185.13,4076.41,3883.59,4386.15,4184.62,4584.62,4541.03,4303.08,3940,4250.77,4620,4376.92,4652.31,1686,1710,2.197,0,0,0,0,
49,4058.46,4185.13,4072.82,3877.95,4384.1,4185.64,4585.13,4537.95,4294.36,3926.67,4231.79,4603.08,4364.1,4638.46,1686,1711,2.204,0,0,0,0,
50,4065.13,4183.59,4071.28,3876.92,4384.1,4183.08,4582.05,4539.49,4297.95,3926.15,4237.44,4598.97,4366.67,4629.74,1686,1712,2.213,0,0,0,0,
51,4076.41,4182.56,4071.28,3877.95,4388.72,4181.03,4577.44,4540,4304.1,3927.69,4242.56,4601.54,4367.69,4633.85,1686,1711,2.22,0,0,0,0,
52,4076.41,4192.31,4074.36,3877.44,4391.28,4181.54,4581.03,4538.97,4297.44,3920,4233.85,4603.59,4366.67,4642.05,1685,1711,2.228,0,0,0,0,
53,4069.74,4201.03,4078.97,3881.03,4393.33,4181.54,4583.59,4541.03,4294.36,3919.49,4232.82,4608.72,4371.79,4641.03,1687,1710,2.235,0,0,0,0,
54,4063.59,4191.79,4075.38,3881.54,4400.51,4181.54,4575.9,4540,4297.44,3925.13,4233.33,4604.1,4365.13,4631.79,1686,1709,2.243,0,0,0,0,
55,4064.1,4180.51,4070.26,3880.51,4399.49,4182.56,4574.87,4537.95,4294.87,3926.67,4232.31,4597.95,4358.97,4632.31,1687,1710,2.251,0,0,0,0,
56,4069.74,4181.54,4066.67,3879.49,4388.72,4183.59,4584.62,4538.97,4292.31,3921.54,4234.36,4598.46,4363.59,4634.36,1689,1709,2.259,0,0,0,0,
57,4067.69,4184.1,4065.64,3878.97,4386.15,4183.08,4583.08,4538.46,4293.85,3916.92,4230.77,4595.38,4363.59,4629.23,1688,1711,2.267,0,0,0,0,
58,4067.69,4183.08,4071.79,3878.97,4390.26,4180.51,4573.85,4536.92,4296.41,3922.56,4233.33,4594.87,4365.13,4629.74,1691,1710,2.274,0,0,0,0,
59,4069.74,4187.69,4077.44,3877.95,4391.79,4178.97,4572.31,4536.41,4294.36,3929.23,4247.18,4602.56,4365.64,4635.9,1690,1709,2.282,0,0,0,0,
60,4058.97,4187.69,4075.38,3877.44,4389.23,4181.03,4571.28,4535.9,4291.28,3926.15,4241.54,4604.62,4360.51,4632.82,1690,1709,2.29,0,0,0,0,
61,4050.26,4176.41,4072.31,3879.49,4386.15,4182.05,4571.79,4537.95,4294.36,3927.69,4232.31,4602.56,4362.05,4623.59,1690,1708,2.298,0,0,0,0,
62,4057.95,4171.28,4071.79,3883.08,4385.13,4182.56,4579.49,4542.56,4300,3932.31,4241.54,4603.59,4364.1,4619.49,1691,1709,2.306,0,0,0,0,
63,4060,4172.31,4066.67,3881.03,4388.72,4185.64,4585.13,4541.54,4297.44,3928.72,4240,4602.56,4358.97,4622.05,1690,1710,2.314,0,0,0,0,
64,4052.31,4165.64,4060.51,3868.72,4387.69,4186.67,4585.13,4540,4293.33,3926.15,4229.74,4600,4363.59,4626.15,1690,1711,2.321,0,0,0,0,
65,4054.36,4170.77,4064.1,3863.08,4386.15,4184.1,4585.13,4542.05,4295.38,3927.69,4240.51,4600,4372.82,4629.23,1690,1710,2.329,0,0,0,0,
66,4060,4182.56,4068.72,3875.38,4394.36,4183.59,4585.64,4541.54,4294.87,3927.18,4250.26,4602.56,4372.31,4634.36,1690,1711,2.337,0,0,0,0,
67,4064.1,4176.92,4066.15,3883.59,4400.51,4189.23,4585.64,4538.97,4293.33,3926.67,4235.9,4602.05,4370.26,4633.85,1692,1709,2.345,0,0,0,0,
68,4065.64,4176.41,4067.69,3878.46,4396.92,4186.15,4581.54,4538.46,4295.38,3926.67,4227.69,4601.03,4368.72,4624.62,1690,1708,2.353,0,0,0,0,
69,4062.56,4189.23,4069.23,3876.41,4395.9,4173.85,4572.82,4535.38,4291.28,3925.64,4232.82,4598.97,4353.33,4616.41,1692,1709,2.361,0,0,0,0,
70,4067.18,4189.74,4062.56,3878.97,4397.44,4174.87,4569.23,4534.36,4285.64,3922.56,4233.85,4591.28,4338.46,4614.87,1692,1710,2.368,0,0,0,0,
71,4071.28,4186.15,4062.05,3878.97,4395.9,4182.05,4571.79,4535.9,4292.31,3926.15,4233.33,4588.72,4345.13,4616.92,1693,1713,2.376,0,0,0,0,
72,4063.59,4188.72,4066.67,3877.95,4396.92,4178.46,4570.77,4530.77,4294.87,3928.21,4232.82,4590.26,4355.9,4610.26,1693,1714,2.384,0,0,0,0,
73,4063.08,4186.67,4062.56,3875.38,4400.51,4178.46,4570.77,4521.03,4281.54,3917.44,4227.69,4586.15,4350.77,4597.95,1694,1714,2.392,0,0,0,0,
74,4075.9,4188.21,4061.03,3878.46,4399.49,4183.59,4572.82,4524.62,4277.95,3909.23,4222.05,4583.59,4347.18,4600.51,1695,1711,2.4,0,0,0,0,
75,4069.74,4189.23,4061.54,3882.56,4397.44,4184.1,4572.82,4535.38,4289.74,3910.26,4217.95,4587.18,4349.23,4614.36,1696,1709,2.407,0,0,0,0,
76,4046.15,4180.51,4058.46,3875.9,4397.44,4182.05,4573.33,4537.95,4295.38,3912.31,4220,4587.18,4342.05,4609.23,1697,1706,2.416,0,0,0,0,
77,4047.69,4179.49,4063.08,3871.28,4400.51,4182.56,4573.85,4535.9,4294.36,3918.46,4229.74,4587.69,4337.95,4596.41,1696,1709,2.423,0,0,0,0,
78,4070.26,4191.79,4070.26,3877.95,4405.13,4185.13,4573.33,4538.97,4295.38,3928.21,4234.36,4590.77,4347.69,4607.18,1697,1710,2.431,0,0,0,0,
79,4075.9,4202.56,4067.69,3884.62,4406.15,4179.49,4572.82,4541.54,4296.92,3930.77,4232.31,4593.33,4360.51,4620,1696,1711,2.439,0,0,0,0,
80,4066.15,4193.85,4063.59,3880.51,4401.54,4172.31,4572.82,4538.46,4296.92,3930.77,4235.9,4597.95,4361.54,4612.31,1696,1711,2.447,0,0,0,0,
81,4066.15,4185.13,4067.18,3874.87,4398.46,4176.41,4573.33,4537.44,4296.92,3931.79,4232.31,4594.36,4351.79,4605.13,1694,1710,2.454,0,0,0,0,
82,4076.92,4195.38,4073.85,3884.62,4402.05,4180.51,4572.82,4539.49,4295.38,3925.13,4220,4589.23,4350.26,4607.18,1693,1709,2.462,0,0,0,0,
83,4089.23,4206.67,4073.85,3894.87,4405.64,4177.95,4571.28,4538.46,4297.44,3923.08,4222.56,4592.82,4351.79,4603.59,1692,1707,2.47,0,0,0,0,
84,4090.77,4204.1,4066.15,3888.72,4406.67,4181.54,4571.79,4536.92,4302.56,3928.21,4236.92,4592.31,4335.38,4598.46,1691,1709,2.478,0,0,0,0,
85,4075.38,4203.59,4064.1,3878.46,4408.72,4186.67,4576.41,4538.97,4301.54,3925.64,4231.79,4587.18,4325.64,4604.1,1690,1709,2.486,0,0,0,0,
86,4062.56,4201.03,4066.67,3878.97,4405.13,4184.62,4583.59,4541.03,4295.38,3914.36,4214.87,4585.13,4333.85,4603.59,1690,1711,2.493,0,0,0,0,
87,4063.59,4187.69,4061.54,3880,4397.95,4186.67,4585.13,4540,4293.33,3907.18,4210.26,4581.54,4329.74,4590.26,1690,1710,2.502,0,0,0,0,
88,4068.72,4188.72,4057.44,3874.87,4398.97,4188.72,4582.56,4538.46,4293.85,3909.74,4215.38,4581.54,4319.49,4589.74,1691,1712,2.509,0,0,0,0,
89,4072.82,4198.97,4062.56,3875.9,4403.08,4185.13,4582.56,4538.46,4291.79,3916.92,4224.1,4587.69,4328.72,4602.56,1694,1709,2.517,0,0,0,0,
90,4078.46,4203.08,4072.82,3887.18,4402.05,4183.59,4578.46,4536.92,4292.82,3924.1,4228.72,4589.23,4342.56,4602.56,1693,1711,2.525,0,0,0,0,
91,4083.08,4202.05,4076.41,3893.33,4400,4180.51,4569.74,4534.87,4293.33,3922.56,4226.67,4590.26,4343.08,4598.46,1696,1712,2.533,0,0,0,0,
92,4084.1,4203.08,4074.36,3883.59,4399.49,4175.38,4568.72,4534.87,4291.28,3916.92,4228.72,4595.9,4344.62,4607.69,1698,1711,2.54,0,0,0,0,
93,4083.59,4204.62,4071.28,3878.46,4403.59,4170.26,4573.33,4536.41,4293.85,3920.51,4233.33,4596.92,4350.77,4611.79,1699,1713,2.548,0,0,0,0,
94,4082.56,4202.56,4068.21,3883.08,4409.74,4170.26,4571.28,4534.87,4293.33,3923.59,4229.74,4594.87,4352.31,4610.77,1701,1712,2.556,0,0,0,0,
95,4078.97,4201.03,4065.64,3881.03,4408.21,4175.9,4568.21,4531.79,4284.62,3920.51,4228.72,4594.87,4345.13,4616.92,1701,1712,2.564,0,0,0,0,
96,4075.38,4200.51,4067.69,3877.44,4401.54,4181.54,4573.85,4535.9,4285.64,3923.08,4232.31,4592.31,4340,4611.79,1702,1711,2.572,0,0,0,0,
97,4078.97,4199.49,4067.18,3875.9,4400,4182.05,4578.97,4540.51,4295.38,3923.08,4224.1,4586.15,4343.08,4596.92,1702,1711,2.586,0,0,0,0,
98,4078.46,4194.36,4060.51,3876.41,4401.54,4182.05,4578.97,4542.05,4299.49,3916.41,4220,4582.05,4343.59,4597.44,1702,1710,2.587,0,0,0,0,
99,4067.18,4197.44,4064.62,3888.72,4400.51,4184.1,4582.56,4544.62,4300.51,3920,4229.23,4583.59,4342.56,4610.77,1702,1711,2.595,0,0,0,0,
100,4066.15,4203.08,4072.31,3893.85,4398.97,4185.13,4586.67,4545.64,4304.62,3929.74,4232.31,4593.33,4339.49,4617.95,1702,1709,2.604,0,0,0,0,
101,4074.36,4188.21,4068.72,3881.54,4399.49,4184.62,4585.64,4547.18,4307.69,3926.67,4228.72,4602.56,4338.46,4617.95,1702,1710,2.611,0,0,0,0,
102,4074.87,4177.44,4068.72,3872.82,4402.05,4184.1,4583.59,4550.26,4307.18,3924.1,4228.72,4601.54,4348.72,4615.9,1702,1708,2.619,0,0,0,0,
103,4077.95,4193.85,4078.97,3875.38,4404.62,4183.59,4584.62,4549.74,4310.77,3929.74,4230.77,4601.54,4361.03,4616.41,1702,1708,2.626,0,0,0,0,
104,4096.92,4207.69,4084.62,3886.67,4404.62,4184.62,4584.62,4543.59,4310.26,3930.77,4234.36,4610.26,4360,4620,1702,1707,2.634,0,0,0,0,
105,4108.21,4203.59,4085.13,3896.41,4401.54,4184.62,4585.64,4539.49,4303.08,3925.64,4236.92,4616.41,4354.36,4627.69,1703,1708,2.648,0,0,0,0,
106,4095.9,4203.08,4090.77,3889.74,4398.97,4184.1,4586.67,4541.54,4304.62,3925.64,4233.33,4615.9,4358.97,4633.33,1704,1708,2.65,0,0,0,0,
107,4084.62,4202.56,4086.15,3878.46,4397.95,4183.59,4584.62,4538.97,4306.67,3928.72,4230.77,4610.77,4361.03,4629.74,1704,1709,2.658,0,0,0,0,
108,4077.44,4192.82,4071.79,3872.31,4395.9,4184.1,4583.59,4535.38,4299.49,3927.18,4234.87,4601.54,4350.77,4618.97,1705,1708,2.666,0,0,0,0,
109,4068.21,4183.59,4066.67,3862.05,4396.41,4184.1,4586.15,4537.95,4292.82,3923.08,4229.74,4592.31,4332.31,4604.1,1705,1710,2.673,0,0,0,0,
110,4065.64,4179.49,4064.62,3863.59,4397.95,4183.08,4583.59,4541.03,4294.87,3918.97,4218.46,4589.74,4323.08,4599.49,1708,1711,2.681,0,0,0,0,
111,4067.69,4188.21,4062.56,3877.44,4395.9,4184.62,4582.05,4536.41,4295.9,3917.44,4221.54,4591.28,4334.36,4607.69,1708,1711,2.689,0,0,0,0,
112,4067.69,4198.46,4064.1,3877.95,4395.9,4186.67,4583.08,4533.33,4293.85,3916.92,4224.62,4588.21,4342.56,4606.15,1707,1712,2.697,0,0,0,0,
113,4068.21,4197.44,4065.64,3872.82,4398.97,4183.59,4576.41,4537.44,4293.85,3918.46,4220,4585.13,4340.51,4595.9,1708,1712,2.705,0,0,0,0,
114,4070.26,4197.95,4068.21,3877.44,4396.92,4179.49,4570.26,4538.97,4297.44,3923.59,4225.64,4592.31,4343.59,4601.03,1707,1712,2.712,0,0,0,0,
115,4070.26,4199.49,4072.82,3877.44,4394.36,4182.56,4581.54,4538.46,4304.62,3927.69,4236.92,4602.56,4349.23,4614.36,1708,1711,2.72,0,0,0,0,
116,4075.9,4196.41,4072.82,3875.9,4396.92,4185.13,4586.67,4540,4303.08,3928.21,4236.92,4600.51,4341.03,4612.82,1708,1710,2.728,0,0,0,0,
117,4080,4194.87,4064.1,3877.95,4397.95,4182.56,4575.9,4536.41,4292.31,3923.08,4225.64,4590.77,4331.28,4602.56,1710,1709,2.736,0,0,0,0,
118,4065.64,4192.82,4060.51,3872.31,4394.87,4183.08,4576.41,4528.72,4283.59,3914.36,4215.9,4582.05,4336.41,4597.44,1709,1710,2.744,0,0,0,0,
119,4046.67,4183.59,4060.51,3862.56,4393.33,4186.67,4581.03,4525.13,4278.46,3907.18,4212.82,4578.97,4338.46,4598.46,1711,1710,2.752,0,0,0,0,
120,4050.77,4179.49,4060,3862.56,4396.41,4181.54,4574.36,4523.08,4278.46,3906.15,4215.9,4582.05,4328.72,4600.51,1711,1711,2.759,0,0,0,0,
121,4067.18,4184.1,4064.1,3872.82,4396.41,4170.26,4569.23,4527.18,4280,3911.28,4220.51,4591.28,4329.74,4600.51,1713,1711,2.767,0,0,0,0,
122,4069.23,4185.64,4070.26,3874.36,4394.36,4170.26,4571.28,4531.28,4278.46,3916.41,4225.13,4598.97,4336.92,4602.56,1714,1710,2.775,0,0,0,0,
123,4064.1,4188.21,4074.36,3871.28,4400.51,4174.36,4572.31,4528.72,4282.05,3921.03,4231.28,4602.56,4330.26,4609.23,1715,1713,2.783,0,0,0,0,
124,4069.74,4192.31,4073.85,3876.41,4406.15,4170.77,4570.77,4531.79,4292.82,3925.64,4231.79,4600,4337.44,4618.46,1716,1710,2.791,0,0,0,0,
125,4071.79,4193.85,4074.36,3880,4401.54,4173.85,4570.77,4539.49,4297.44,3922.05,4223.59,4591.79,4353.85,4618.97,1715,1710,2.799,0,0,0,0,
126,4067.18,4195.38,4076.41,3880.51,4395.38,4183.59,4575.9,4542.05,4296.92,3914.36,4213.33,4588.21,4341.54,4609.74,1718,1709,2.806,0,0,0,0,
127,4070.26,4196.92,4075.38,3881.03,4397.44,4187.69,4580.51,4544.62,4302.05,3921.03,4218.97,4594.87,4326.67,4606.67,1718,1708,2.814,0,0,0,0,
128,4075.9,4198.46,4075.9,3871.79,4402.56,4182.05,4572.82,4546.15,4303.59,3930.77,4234.87,4600.51,4342.56,4615.9,1719,1709,2.822,0,0,0,0,
0,4075.9,4194.87,4076.92,3865.13,4401.03,4171.28,4568.21,4540,4295.9,3924.1,4235.38,4603.08,4358.97,4623.59,1719,1709,2.83,0,0,0,0,
1,4076.92,4191.28,4069.23,3877.95,4395.9,4170.77,4572.31,4536.41,4292.31,3918.46,4226.67,4602.05,4341.03,4616.92,1720,1711,2.838,0,0,0,0,
2,4075.9,4182.56,4064.62,3879.49,4393.85,4183.59,4573.33,4538.97,4295.38,3924.1,4229.74,4601.03,4322.56,4610.26,1720,1711,2.845,0,0,0,0,
3,4068.72,4172.82,4073.33,3869.23,4394.87,4184.1,4573.33,4536.41,4293.33,3925.13,4235.38,4602.05,4334.87,4612.82,1720,1711,2.853,0,0,0,0,
4,4066.67,4182.56,4073.33,3876.41,4393.85,4175.38,4580.51,4538.97,4296.92,3923.08,4224.1,4595.9,4346.67,4609.74,1720,1709,2.861,0,0,0,0,
5,4078.46,4203.08,4066.67,3881.54,4394.87,4180.51,4585.64,4549.23,4310.77,3927.18,4213.85,4589.23,4339.49,4601.54,1719,1711,2.869,0,0,0,0,
6,4090.26,4213.85,4071.28,3874.87,4399.49,4188.72,4585.13,4548.21,4307.69,3928.72,4223.08,4595.38,4336.41,4605.13,1720,1709,2.877,0,0,0,0,
7,4088.21,4213.85,4077.95,3880,4400.51,4186.67,4582.56,4538.46,4294.36,3926.15,4235.9,4603.08,4343.59,4614.36,1717,1710,2.885,0,0,0,0,
8,4078.97,4206.67,4078.46,3880.51,4398.97,4183.59,4584.1,4537.95,4297.44,3934.87,4231.28,4601.03,4343.59,4610.77,1718,1709,2.892,0,0,0,0,
9,4072.82,4190.77,4076.92,3866.15,4400,4183.59,4588.21,4544.1,4302.05,3940.51,4222.56,4594.36,4332.31,4600,1715,1709,2.9,0,0,0,0,
10,4068.21,4184.62,4070.26,3866.67,4401.54,4185.64,4584.62,4540,4293.33,3921.54,4223.59,4585.64,4316.41,4589.23,1715,1710,2.908,0,0,0,0,
11,4069.23,4194.87,4068.72,3880.51,4399.49,4185.64,4573.85,4535.9,4288.21,3905.64,4225.13,4582.05,4313.85,4583.59,1712,1709,2.916,0,0,0,0,
12,4079.49,4199.49,4075.38,3882.56,4401.54,4182.56,4568.72,4536.41,4285.64,3911.79,4221.54,4586.67,4335.9,4592.31,1711,1708,2.924,0,0,0,0,
13,4085.13,4196.41,4075.9,3877.44,4407.18,4181.54,4573.33,4535.38,4286.67,3920.51,4226.67,4592.31,4352.31,4611.79,1708,1708,2.931,0,0,0,0,
14,4080.51,4197.44,4073.85,3882.56,4406.15,4182.05,4581.03,4537.95,4297.44,3929.74,4245.13,4602.05,4346.15,4620,1705,1709,2.939,0,0,0,0,
15,4073.85,4203.59,4076.92,3880.51,4403.08,4174.87,4581.54,4541.54,4302.56,3945.13,4243.59,4603.59,4343.08,4607.69,1703,1709,2.947,0,0,0,0,
16,4067.69,4199.49,4072.31,3865.64,4402.05,4171.28,4577.95,4541.54,4298.97,3941.54,4223.08,4590.26,4344.1,4597.44,1700,1711,2.955,0,0,0,0,
17,4062.05,4187.69,4058.46,3866.67,4397.95,4180.51,4579.49,4535.38,4289.23,3917.95,4216.41,4580,4334.36,4591.28,1701,1710,2.963,0,0,0,0,
18,4057.95,4184.62,4056.92,3877.95,4395.9,4189.74,4585.64,4531.79,4282.05,3904.62,4221.03,4582.05,4327.69,4584.62,1697,1710,2.971,0,0,0,0,
19,4060,4188.72,4069.74,3878.97,4400,4186.15,4584.62,4535.9,4286.15,3909.23,4220.51,4585.13,4332.31,4592.82,1696,1710,2.978,0,0,0,0,
20,4068.72,4188.72,4075.9,3875.38,4401.03,4181.03,4575.9,4534.36,4289.74,3917.44,4217.44,4584.1,4332.82,4605.64,1695,1708,2.986,0,0,0,0,
21,4066.15,4183.59,4068.72,3873.85,4398.46,4181.03,4571.79,4528.21,4284.1,3914.36,4217.95,4586.15,4318.97,4590.77,1693,1708,2.994,0,0,0,0,
22,4051.79,4181.54,4064.1,3864.1,4398.97,4182.56,4571.28,4520.51,4272.82,3898.46,4212.82,4583.08,4309.23,4571.79,1690,1706,3.002,0,0,0,0,
23,4053.33,4183.08,4066.15,3863.08,4398.97,4184.1,4571.28,4508.72,4262.05,3891.28,4211.79,4575.38,4315.9,4588.21,1688,1706,3.01,0,0,0,0,
24,4066.67,4185.64,4068.72,3878.46,4397.44,4184.1,4571.28,4507.18,4265.13,3902.05,4220.51,4577.44,4325.64,4602.05,1686,1706,3.017,0,0,0,0,
25,4072.82,4187.69,4073.33,3882.05,4397.44,4182.05,4572.31,4520.51,4279.49,3912.31,4228.21,4587.18,4332.82,4596.41,1685,1707,3.025,0,0,0,0,
26,4076.92,4188.21,4076.41,3877.44,4400,4181.54,4573.85,4524.62,4281.54,3917.95,4230.26,4594.36,4344.1,4604.62,1684,1706,3.033,0,0,0,0,
27,4084.62,4190.26,4077.44,3879.49,4398.97,4184.62,4574.36,4521.03,4277.95,3926.15,4232.82,4602.05,4356.41,4629.74,1684,1708,3.041,0,0,0,0,
28,4079.49,4185.64,4073.85,3876.92,4395.9,4184.62,4572.82,4523.08,4280,3922.05,4232.82,4604.62,4350.77,4635.38,1683,1709,3.05,0,0,0,0,
29,4063.59,4171.28,4068.21,3864.62,4397.44,4180.51,4573.33,4521.03,4275.38,3904.62,4229.74,4596.41,4348.72,4627.18,1684,1712,3.057,0,0,0,0,
30,4066.15,4166.15,4072.31,3859.49,4397.95,4181.03,4581.54,4525.13,4280,3912.31,4244.1,4602.56,4372.82,4642.56,1685,1712,3.064,0,0,0,0,
31,4080.51,4168.21,4082.05,3865.64,4392.31,4184.1,4587.69,4539.49,4298.46,3942.05,4266.67,4625.13,4390.77,4667.18,1686,1712,3.072,0,0,0,0,
32,4076.41,4155.9,4079.49,3866.15,4386.15,4185.13,4586.67,4542.05,4301.54,3946.15,4266.15,4627.18,4385.64,4661.54,1686,1711,3.08,0,0,0,0,
33,4064.62,4140.51,4073.33,3850.77,4389.74,4185.13,4585.13,4535.38,4295.38,3935.38,4257.95,4616.92,4385.13,4646.67,1688,1711,3.088,0,0,0,0,
34,4059.49,4138.97,4076.92,3841.54,4393.33,4184.62,4588.72,4545.13,4306.67,3943.59,4264.1,4621.54,4395.9,4656.92,1688,1709,3.096,0,0,0,0,
35,4053.33,4141.54,4081.54,3853.85,4387.18,4184.62,4592.31,4555.9,4311.79,3950.26,4265.64,4625.13,4393.33,4670.26,1688,1710,3.104,0,0,0,0,
36,4053.33,4145.64,4078.97,3864.1,4379.49,4184.1,4589.23,4545.13,4295.9,3940.51,4258.46,4621.03,4389.74,4658.97,1690,1708,3.111,0,0,0,0,
37,4063.59,4153.85,4075.38,3859.49,4382.05,4183.08,4585.64,4531.79,4286.15,3937.44,4260.51,4624.1,4400,4650.26,1688,1709,3.119,0,0,0,0,
38,4066.15,4156.92,4074.87,3860,4390.77,4183.59,4587.18,4538.97,4295.9,3941.54,4267.18,4628.21,4402.05,4663.59,1690,1709,3.127,0,0,0,0,
39,4062.05,4159.49,4078.46,3868.72,4394.87,4184.62,4588.72,4553.85,4305.13,3940.51,4265.64,4626.67,4398.46,4672.31,1689,1709,3.135,0,0,0,0,
40,4060,4158.46,4082.56,3867.69,4396.41,4185.64,4587.18,4550.26,4302.56,3944.1,4262.05,4624.62,4401.03,4663.08,1689,1709,3.143,0,0,0,0,
41,4058.97,4155.9,4079.49,3861.54,4401.03,4185.64,4587.69,4543.08,4301.54,3949.23,4263.59,4621.03,4398.97,4658.46,1689,1710,3.15,0,0,0,0,
42,4062.56,4155.9,4069.74,3858.46,4399.49,4185.64,4586.67,4550.26,4308.21,3947.69,4264.1,4616.41,4395.38,4663.08,1690,1712,3.158,0,0,0,0,
43,4063.08,4154.36,4061.03,3858.46,4395.38,4187.69,4583.59,4555.9,4309.74,3949.74,4260,4614.36,4396.92,4653.33,1691,1712,3.166,0,0,0,0,
44,4056.41,4159.49,4064.1,3863.08,4395.9,4188.21,4585.13,4551.79,4302.05,3949.74,4257.95,4612.82,4395.38,4646.15,1691,1714,3.174,0,0,0,0,
45,4056.41,4165.13,4072.82,3866.67,4397.44,4184.62,4589.23,4552.82,4308.21,3944.1,4256.92,4616.92,4395.9,4658.46,1693,1712,3.182,0,0,0,0,
46,4061.03,4157.95,4073.33,3865.13,4397.95,4185.13,4591.28,4562.05,4322.05,3948.21,4253.33,4616.92,4398.46,4663.08,1693,1714,3.19,0,0,0,0,
47,4054.36,4152.31,4067.18,3863.08,4396.92,4188.21,4588.72,4554.36,4316.41,3951.79,4247.18,4604.1,4386.67,4647.18,1694,1713,3.197,0,0,0,0,
48,4040.51,4156.92,4064.62,3864.62,4390.77,4186.67,4587.18,4541.03,4304.62,3946.67,4245.64,4595.9,4371.79,4633.85,1694,1713,3.205,0,0,0,0,
49,4036.41,4151.79,4068.21,3859.49,4388.21,4185.13,4587.69,4544.62,4307.69,3946.15,4253.85,4599.49,4383.08,4641.03,1696,1713,3.213,0,0,0,0,
50,4045.64,4150.26,4069.74,3857.95,4395.38,4186.15,4583.59,4548.72,4314.36,3948.72,4258.97,4605.13,4401.54,4649.23,1695,1711,3.221,0,0,0,0,
51,4060,4171.28,4068.21,3872.82,4400.51,4183.59,4578.97,4541.03,4304.62,3941.54,4250.77,4602.56,4396.41,4642.05,1695,1711,3.229,0,0,0,0,
52,4058.97,4186.15,4065.64,3877.95,4396.92,4181.54,4580.51,4537.95,4294.87,3932.82,4240.51,4594.87,4369.74,4622.56,1694,1707,3.236,0,0,0,0,
53,4045.13,4186.67,4066.15,3867.18,4398.46,4184.1,4578.46,4536.92,4292.82,3929.23,4233.85,4585.64,4353.85,4604.62,1693,1706,3.244,0,0,0,0,
54,4046.67,4180,4067.69,3862.56,4408.72,4185.13,4570.77,4531.28,4290.77,3924.62,4228.21,4584.1,4360,4602.56,1693,1706,3.252,0,0,0,0,
55,4062.56,4175.38,4068.72,3868.72,4410.77,4181.03,4569.74,4534.87,4293.85,3925.13,4236.41,4595.38,4366.67,4616.92,1692,1708,3.26,0,0,0,0,
56,4073.33,4182.56,4073.85,3874.36,4407.18,4173.33,4573.33,4534.36,4293.85,3932.82,4249.74,4604.1,4367.69,4633.33,1693,1709,3.268,0,0,0,0,
57,4074.87,4189.74,4080,3881.03,4407.69,4171.28,4570.26,4520,4284.1,3938.97,4242.05,4602.56,4373.85,4632.82,1691,1711,3.276,0,0,0,0,
58,4063.08,4176.92,4071.79,3876.41,4408.72,4176.92,4569.74,4522.05,4285.13,3930.77,4229.74,4589.74,4369.23,4617.44,1693,1711,3.283,0,0,0,0,
59,4041.54,4160.51,4053.33,3862.05,4409.23,4184.62,4577.95,4537.44,4295.9,3919.49,4231.28,4577.44,4357.95,4601.54,1690,1711,3.291,0,0,0,0,
60,4041.54,4169.74,4050.26,3861.03,4413.85,4186.15,4581.54,4538.46,4295.38,3929.74,4234.87,4581.54,4362.05,4597.44,1691,1712,3.299,0,0,0,0,
61,4056.41,4186.15,4060.51,3867.18,4415.9,4182.05,4580.51,4536.92,4297.44,3946.67,4237.44,4591.79,4365.64,4605.64,1690,1710,3.307,0,0,0,0,
62,4051.28,4182.56,4060.51,3866.15,4415.9,4181.54,4584.62,4548.72,4311.28,3947.18,4248.21,4597.95,4365.13,4612.31,1690,1710,3.315,0,0,0,0,
63,4041.54,4168.21,4057.44,3860,4415.9,4186.67,4589.23,4558.46,4315.38,3942.56,4249.23,4598.46,4370.77,4618.97,1690,1707,3.322,0,0,0,0,
64,4053.85,4167.69,4062.05,3858.46,4417.95,4188.21,4586.67,4552.31,4307.18,3944.1,4236.92,4594.36,4370.77,4623.59,1689,1706,3.33,0,0,0,0,
65,4062.56,4171.79,4062.56,3863.08,4424.1,4186.15,4583.59,4541.54,4302.56,3939.49,4230.26,4585.64,4363.08,4620,1689,1706,3.339,0,0,0,0,
66,4053.33,4169.23,4058.46,3866.67,4427.69,4189.23,4585.13,4539.49,4300.51,3935.38,4235.38,4583.59,4363.59,4611.79,1689,1707,3.346,0,0,0,0,
67,4051.79,4173.33,4063.08,3863.59,4427.18,4186.15,4584.62,4539.49,4295.38,3941.54,4243.59,4592.82,4368.72,4611.79,1689,1707,3.354,0,0,0,0,
68,4066.15,4183.08,4071.79,3864.1,4424.62,4175.38,4582.05,4538.46,4293.33,3939.49,4240,4600,4373.85,4624.62,1690,1710,3.362,0,0,0,0,
69,4073.33,4185.13,4074.87,3876.92,4418.46,4177.44,4582.05,4538.97,4295.9,3927.69,4234.36,4595.38,4369.74,4633.85,1690,1710,3.369,0,0,0,0,
70,4065.64,4175.9,4074.87,3878.97,4417.44,4182.56,4582.56,4540,4296.92,3925.64,4243.59,4593.85,4360.51,4633.85,1690,1711,3.377,0,0,0,0,
71,4062.05,4171.79,4073.85,3865.13,4421.54,4174.36,4578.97,4536.41,4290.26,3929.23,4252.82,4602.05,4369.74,4635.38,1691,1711,3.385,0,0,0,0,
72,4071.28,4182.56,4070.26,3865.13,4415.9,4167.69,4572.31,4525.64,4280.51,3924.62,4237.95,4598.46,4370.26,4631.28,1692,1710,3.393,0,0,0,0,
73,4081.54,4191.79,4066.67,3875.9,4413.33,4167.18,4570.77,4517.95,4277.44,3916.92,4227.18,4585.64,4338.97,4614.87,1693,1711,3.401,0,0,0,0,
74,4082.05,4187.69,4069.23,3878.97,4423.59,4168.72,4572.82,4518.97,4277.44,3910.77,4235.38,4582.05,4328.21,4607.69,1694,1709,3.408,0,0,0,0,
75,4071.79,4184.1,4073.85,3875.9,4426.15,4176.41,4573.33,4522.05,4275.9,3908.72,4227.69,4585.13,4349.74,4614.36,1693,1709,3.416,0,0,0,0,
76,4061.54,4187.18,4076.41,3867.69,4420,4180,4572.31,4522.05,4277.95,3910.26,4213.33,4586.15,4356.41,4614.36,1694,1708,3.424,0,0,0,0,
77,4067.18,4184.1,4075.38,3862.05,4418.46,4174.36,4572.82,4523.08,4277.44,3908.21,4221.03,4584.1,4345.64,4609.74,1693,1706,3.432,0,0,0,0,
78,4086.15,4181.54,4075.38,3871.28,4419.49,4170.77,4573.33,4522.56,4274.87,3914.87,4233.33,4588.72,4349.23,4612.31,1692,1704,3.44,0,0,0,0,
79,4098.46,4188.21,4080,3884.1,4424.1,4174.87,4573.33,4526.15,4286.67,3927.18,4233.33,4602.05,4358.46,4624.62,1691,1704,3.448,0,0,0,0,
80,4087.69,4188.72,4082.56,3883.08,4430.77,4176.41,4572.82,4534.87,4297.44,3930.77,4232.31,4605.13,4355.38,4638.97,1690,1705,3.455,0,0,0,0,
81,4073.33,4184.62,4080,3876.41,4426.67,4173.33,4572.82,4538.97,4290.77,3929.23,4233.33,4598.46,4353.33,4644.62,1689,1707,3.463,0,0,0,0,
82,4082.56,4193.33,4078.46,3875.38,4420,4171.79,4573.85,4533.33,4282.56,3923.08,4234.87,4598.97,4358.46,4643.59,1689,1711,3.471,0,0,0,0,
83,4090.77,4195.38,4077.44,3882.05,4425.64,4171.28,4572.82,4527.69,4277.44,3909.74,4236.92,4602.56,4354.87,4636.92,1688,1713,3.479,0,0,0,0,
84,4082.05,4188.72,4075.38,3885.64,4430.77,4171.79,4569.74,4532.82,4277.95,3906.15,4234.36,4598.46,4348.72,4628.72,1689,1713,3.487,0,0,0,0,
85,4079.49,4194.87,4074.36,3875.38,4427.69,4172.82,4574.87,4541.54,4291.79,3919.49,4233.33,4591.79,4357.44,4631.79,1689,1712,3.494,0,0,0,0,
86,4080.51,4193.85,4069.74,3865.13,4426.15,4177.95,4581.03,4542.05,4293.33,3922.56,4232.31,4586.15,4355.38,4632.31,1689,1712,3.502,0,0,0,0,
87,4066.15,4172.82,4062.05,3863.59,4428.21,4182.56,4577.44,4535.38,4278.97,3909.74,4222.56,4582.05,4338.97,4617.44,1690,1712,3.51,0,0,0,0,
88,4061.03,4170.77,4063.59,3863.59,4427.18,4183.08,4576.92,4534.36,4283.59,3906.67,4218.97,4580.51,4342.05,4615.38,1691,1711,3.518,0,0,0,0,
89,4071.28,4185.64,4074.36,3865.13,4425.64,4185.13,4586.15,4540,4300,3920.51,4231.28,4585.64,4351.79,4629.74,1690,1710,3.526,0,0,0,0,
90,4077.95,4185.13,4080,3865.13,4427.69,4182.56,4584.62,4539.49,4297.44,3929.74,4244.62,4596.92,4353.33,4635.9,1691,1709,3.534,0,0,0,0,
91,4082.56,4181.03,4077.95,3870.26,4427.69,4174.36,4572.31,4538.46,4294.36,3925.64,4245.64,4602.05,4356.41,4633.33,1690,1707,3.541,0,0,0,0,
92,4078.97,4182.05,4078.46,3876.92,4425.13,4168.72,4568.72,4538.97,4296.41,3923.59,4245.13,4598.46,4356.92,4631.79,1690,1708,3.549,0,0,0,0,
93,4075.38,4185.64,4078.97,3877.95,4426.15,4167.69,4571.28,4528.21,4284.1,3926.15,4241.54,4595.9,4361.54,4637.44,1691,1707,3.557,0,0,0,0,
94,4076.92,4187.18,4078.46,3876.41,4427.69,4167.69,4571.28,4524.1,4275.9,3926.15,4235.38,4591.79,4366.67,4644.62,1690,1710,3.565,0,0,0,0,
95,4076.92,4185.13,4077.95,3879.49,4430.77,4175.38,4570.77,4534.87,4286.15,3922.56,4239.49,4588.21,4358.46,4639.49,1691,1710,3.573,0,0,0,0,
96,4078.46,4186.15,4076.41,3880.51,4440.51,4184.1,4569.23,4531.79,4288.72,3922.05,4246.15,4591.28,4356.41,4630.77,1691,1710,3.581,0,0,0,0,
97,4078.97,4190.26,4075.38,3880,4445.13,4181.03,4568.72,4521.03,4282.05,3922.56,4245.13,4596.92,4371.28,4631.79,1692,1710,3.588,0,0,0,0,
98,4075.38,4188.72,4075.9,3880,4440,4177.44,4571.28,4532.82,4290.26,3925.13,4246.15,4598.46,4367.69,4635.9,1691,1710,3.596,0,0,0,0,
99,4073.85,4182.56,4075.9,3867.18,4441.54,4183.08,4572.82,4542.05,4298.46,3927.69,4245.64,4596.41,4351.28,4633.85,1693,1710,3.604,0,0,0,0,
100,4070.77,4177.95,4076.92,3856.41,4445.64,4183.59,4568.72,4527.18,4289.74,3926.15,4231.79,4594.87,4355.9,4631.28,1692,1709,3.612,0,0,0,0,
101,4065.13,4174.87,4078.97,3869.74,4436.92,4179.49,4570.26,4526.15,4287.18,3926.15,4234.87,4600,4364.1,4633.33,1693,1709,3.62,0,0,0,0,
102,4067.18,4171.79,4075.9,3884.1,4433.33,4183.59,4578.97,4538.97,4295.9,3929.23,4250.26,4603.08,4358.97,4634.87,1692,1707,3.627,0,0,0,0,
103,4068.72,4172.31,4068.21,3875.38,4438.97,4186.15,4578.97,4534.36,4295.9,3928.21,4242.05,4593.33,4354.87,4626.67,1691,1708,3.635,0,0,0,0,
104,4057.44,4173.85,4066.15,3864.1,4435.38,4180.51,4571.28,4520.51,4286.67,3927.18,4227.18,4583.08,4352.82,4615.38,1692,1705,3.643,0,0,0,0,
105,4047.69,4172.82,4068.21,3864.1,4429.74,4178.46,4569.74,4522.05,4280,3926.15,4232.31,4583.08,4343.08,4616.41,1689,1707,3.651,0,0,0,0,
106,4050.26,4169.74,4069.23,3866.15,4432.82,4184.62,4572.82,4525.64,4278.46,3916.41,4233.33,4584.62,4343.59,4621.03,1690,1708,3.659,0,0,0,0,
107,4058.97,4171.79,4066.67,3868.72,4431.79,4187.18,4571.28,4524.1,4284.62,3914.36,4223.08,4582.05,4356.92,4616.92,1688,1708,3.667,0,0,0,0,
108,4061.03,4173.33,4065.13,3869.74,4426.15,4184.1,4570.77,4532.31,4296.41,3924.1,4225.64,4585.64,4352.31,4611.28,1689,1710,3.674,0,0,0,0,
109,4053.33,4169.23,4066.67,3863.59,4423.08,4182.05,4572.82,4541.54,4301.03,3929.74,4235.9,4595.38,4347.69,4614.36,1689,1709,3.682,0,0,0,0,
110,4047.18,4168.72,4066.15,3859.49,4422.05,4183.59,4573.85,4540.51,4298.97,3927.18,4234.87,4594.87,4358.46,4617.44,1689,1708,3.69,0,0,0,0,
111,4047.69,4170.26,4062.56,3863.59,4423.08,4185.64,4573.85,4534.36,4294.36,3924.1,4229.23,4584.1,4355.9,4614.36,1689,1708,3.698,0,0,0,0,
112,4050.26,4171.28,4063.08,3865.64,4422.05,4179.49,4571.28,4530.26,4291.79,3932.31,4241.03,4587.18,4348.21,4622.05,1690,1708,3.706,0,0,0,0,
113,4053.85,4172.82,4069.74,3866.15,4415.9,4167.69,4571.79,4534.87,4300.51,3947.69,4255.38,4606.67,4367.18,4634.36,1691,1707,3.713,0,0,0,0,
114,4061.54,4173.85,4076.41,3866.15,4412.82,4171.28,4577.95,4543.59,4310.26,3950.26,4254.87,4612.31,4381.54,4635.9,1691,1710,3.721,0,0,0,0,
115,4068.72,4174.87,4079.49,3860.51,4413.85,4183.08,4581.54,4549.74,4308.21,3944.62,4256.41,4603.08,4372.82,4640,1692,1708,3.729,0,0,0,0,
116,4070.77,4180,4081.03,3867.69,4414.87,4183.59,4582.56,4550.26,4308.72,3946.67,4257.44,4604.1,4375.38,4644.62,1691,1707,3.737,0,0,0,0,
117,4069.23,4185.13,4082.05,3882.05,4415.38,4182.56,4585.64,4546.67,4313.85,3948.21,4251.28,4612.82,4382.56,4638.46,1692,1706,3.745,0,0,0,0,
118,4063.08,4184.62,4081.54,3875.9,4416.92,4181.54,4581.03,4540.51,4305.13,3942.05,4245.13,4608.21,4370.77,4631.79,1691,1706,3.753,0,0,0,0,
119,4059.49,4180,4075.38,3866.67,4417.44,4172.31,4569.74,4533.85,4292.31,3934.36,4240,4592.82,4356.92,4625.64,1692,1707,3.76,0,0,0,0,
120,4059.49,4178.97,4067.18,3871.28,4413.85,4171.28,4568.72,4530.77,4291.28,3929.23,4234.36,4584.62,4354.87,4616.41,1691,1708,3.768,0,0,0,0,
121,4047.69,4178.97,4063.08,3870.77,4414.87,4183.08,4572.82,4532.82,4294.36,3927.69,4233.85,4583.59,4361.03,4616.92,1690,1710,3.776,0,0,0,0,
122,4033.85,4173.33,4062.05,3860,4421.03,4187.18,4571.79,4536.41,4294.36,3930.26,4236.41,4583.59,4364.1,4621.54,1690,1709,3.784,0,0,0,0,
123,4036.92,4168.72,4064.1,3862.05,4418.46,4181.54,4571.79,4537.95,4295.38,3934.36,4236.41,4584.62,4356.41,4615.38,1690,1710,3.792,0,0,0,0,
124,4042.56,4171.28,4066.15,3873.85,4410.77,4182.05,4573.33,4538.97,4296.92,3931.79,4237.44,4585.13,4351.79,4610.77,1689,1709,3.799,0,0,0,0,
125,4044.1,4175.38,4067.18,3873.33,4416.92,4185.13,4571.28,4538.46,4296.92,3928.72,4235.9,4585.64,4357.44,4614.36,1689,1710,3.807,0,0,0,0,
126,4048.21,4172.31,4066.15,3862.05,4425.13,4182.05,4571.28,4537.44,4296.41,3940.51,4235.38,4586.15,4357.95,4615.9,1689,1709,3.815,0,0,0,0,
127,4043.08,4169.74,4065.13,3858.97,4423.08,4181.03,4572.82,4540.51,4295.9,3942.56,4234.87,4584.62,4354.36,4609.74,1688,1710,3.823,0,0,0,0,
128,4035.38,4174.87,4064.62,3866.67,4418.97,4185.13,4574.36,4542.05,4296.41,3930.26,4231.28,4583.59,4353.85,4609.74,1690,1710,3.831,0,0,0,0,
0,4043.08,4182.05,4064.1,3866.67,4413.85,4184.62,4572.82,4538.46,4297.44,3930.77,4232.31,4584.1,4353.85,4616.41,1690,1709,3.839,0,0,0,0,
1,4055.9,4182.56,4065.64,3862.56,4413.85,4177.44,4570.77,4534.87,4295.9,3933.33,4234.87,4584.1,4355.38,4615.9,1691,1709,3.846,0,0,0,0,
2,4050.77,4181.03,4070.77,3863.59,4421.54,4180,4571.79,4535.9,4294.36,3928.21,4233.33,4589.74,4357.44,4618.46,1692,1708,3.854,0,0,0,0,
3,4041.03,4183.08,4074.87,3860,4423.59,4187.18,4572.82,4536.92,4292.31,3933.85,4234.36,4598.97,4356.41,4626.15,1692,1709,3.862,0,0,0,0,
4,4050.26,4184.1,4076.41,3862.05,4421.54,4179.49,4570.77,4528.72,4289.74,3940,4241.54,4601.54,4362.56,4625.64,1693,1709,3.87,0,0,0,0,
5,4067.69,4187.18,4077.95,3876.41,4424.1,4166.67,4569.74,4523.59,4289.23,3938.46,4249.74,4600.51,4366.15,4629.23,1693,1709,3.878,0,0,0,0,
6,4070.26,4189.23,4075.9,3882.56,4423.59,4174.87,4570.26,4527.69,4288.21,3942.56,4250.77,4602.05,4358.97,4643.08,1694,1709,3.885,0,0,0,0,
7,4061.03,4185.64,4078.46,3869.23,4416.41,4183.59,4569.23,4526.67,4281.54,3937.95,4246.15,4600.51,4357.44,4642.05,1693,1710,3.893,0,0,0,0,
8,4058.46,4182.56,4088.21,3859.49,4415.38,4175.38,4569.23,4521.54,4278.46,3918.97,4244.62,4599.49,4364.62,4627.69,1693,1711,3.901,0,0,0,0,
9,4058.97,4185.13,4092.31,3867.69,4416.92,4172.82,4572.31,4527.69,4285.64,3913.33,4246.15,4604.62,4367.18,4630.77,1693,1712,3.909,0,0,0,0,
10,4063.08,4184.62,4091.28,3878.97,4414.87,4175.38,4571.28,4537.44,4293.33,3935.9,4249.23,4611.28,4365.64,4644.1,1693,1711,3.917,0,0,0,0,
11,4071.28,4174.87,4092.31,3876.92,4413.33,4172.82,4572.31,4542.05,4298.97,3957.95,4250.77,4613.33,4367.18,4644.1,1692,1711,3.925,0,0,0,0,
12,4069.74,4169.23,4092.31,3867.69,4412.31,4173.85,4576.41,4544.1,4301.03,3949.74,4249.23,4612.31,4369.74,4641.03,1690,1708,3.932,0,0,0,0,
13,4061.03,4177.44,4092.31,3868.72,4411.28,4176.41,4574.87,4537.44,4290.77,3928.21,4249.74,4610.77,4367.69,4643.08,1690,1707,3.94,0,0,0,0,
14,4057.95,4184.62,4089.23,3876.92,4411.28,4172.82,4571.28,4531.79,4283.08,3923.08,4250.77,4607.18,4363.59,4643.08,1689,1705,3.948,0,0,0,0,
15,4063.59,4183.08,4082.05,3878.97,4412.82,4170.77,4572.31,4534.36,4284.62,3930.26,4246.67,4603.08,4364.62,4640.51,1688,1707,3.956,0,0,0,0,
16,4062.56,4183.59,4083.08,3877.44,4412.82,4171.28,4569.23,4529.23,4284.1,3929.74,4245.64,4601.54,4368.72,4638.46,1688,1705,3.964,0,0,0,0,
17,4061.03,4185.64,4090.26,3877.95,4411.79,4168.21,4564.1,4519.49,4276.92,3924.62,4250.26,4601.54,4368.21,4637.44,1686,1707,3.971,0,0,0,0,
18,4067.18,4187.69,4089.74,3880.51,4420,4167.18,4565.64,4521.03,4276.92,3926.15,4251.79,4600.51,4369.74,4638.97,1688,1707,3.979,0,0,0,0,
19,4070.26,4190.26,4088.21,3881.54,4428.21,4167.18,4570.77,4527.69,4282.56,3929.74,4248.21,4600.51,4375.38,4644.1,1687,1706,3.987,0,0,0,0,
20,4066.15,4188.72,4090.77,3879.49,4429.74,4175.9,4572.31,4525.64,4282.56,3929.23,4246.67,4600,4375.9,4643.08,1688,1708,3.995,0,0,0,0,
21,4065.64,4186.15,4092.82,3876.41,4431.28,4183.08,4569.74,4522.56,4278.97,3924.1,4247.69,4598.46,4366.67,4640,1689,1707,4.003,0,0,0,0,
22,4068.72,4185.64,4091.79,3877.44,4432.31,4175.38,4568.21,4523.59,4277.95,3923.08,4250.77,4598.46,4367.69,4638.97,1688,1707,4.011,0,0,0,0,
23,4067.69,4184.1,4089.74,3880,4427.69,4170.26,4570.77,4526.67,4283.59,3929.74,4252.31,4602.56,4376.92,4640,1689,1706,4.018,0,0,0,0,
24,4066.67,4184.1,4088.21,3872.82,4425.64,4172.31,4572.82,4525.64,4285.13,3932.31,4248.72,4603.59,4378.46,4640.51,1690,1707,4.026,0,0,0,0,
25,4067.18,4186.67,4088.21,3864.1,4426.15,4173.85,4571.28,4522.05,4277.44,3922.56,4244.1,4600,4371.79,4639.49,1690,1707,4.034,0,0,0,0,
26,4066.15,4188.21,4091.79,3871.79,4428.21,4176.41,4572.82,4525.64,4278.46,3919.49,4247.69,4598.97,4365.64,4640.51,1690,1709,4.042,0,0,0,0,
27,4069.23,4188.21,4093.33,3884.1,4432.31,4177.95,4573.33,4528.21,4289.74,3936.41,4261.03,4602.56,4371.79,4640,1693,1709,4.05,0,0,0,0,
28,4068.72,4185.13,4088.21,3880,4431.79,4170.26,4567.69,4523.59,4289.23,3946.15,4262.56,4603.59,4382.05,4634.36,1692,1710,4.057,0,0,0,0,
29,4062.05,4182.56,4081.03,3871.79,4427.69,4172.82,4566.67,4521.54,4281.03,3937.44,4252.31,4600,4378.46,4631.28,1694,1712,4.065,0,0,0,0,
30,4062.56,4184.1,4077.95,3875.9,4428.21,4180.51,4569.23,4525.13,4282.05,3935.9,4251.28,4597.44,4369.74,4633.85,1692,1711,4.073,0,0,0,0,
31,4064.1,4188.72,4080.51,3879.49,4428.21,4173.33,4567.69,4523.59,4281.03,3941.54,4253.33,4598.97,4376.41,4632.31,1693,1713,4.081,0,0,0,0,
32,4054.87,4190.26,4082.56,3873.33,4426.67,4169.74,4567.69,4521.54,4282.56,3943.59,4250.26,4601.03,4392.31,4633.33,1694,1711,4.089,0,0,0,0,
33,4046.67,4188.21,4080,3863.08,4426.15,4181.54,4572.31,4528.72,4292.31,3938.97,4249.23,4600.51,4388.21,4633.85,1692,1711,4.097,0,0,0,0,
34,4053.85,4188.72,4078.97,3862.56,4432.31,4188.21,4574.36,4537.95,4290.77,3932.82,4249.74,4599.49,4370.26,4623.59,1693,1710,4.104,0,0,0,0,
35,4060.51,4187.18,4078.97,3868.21,4442.56,4181.03,4572.31,4535.9,4280.51,3934.36,4248.21,4600.51,4364.1,4620,1692,1710,4.112,0,0,0,0,
36,4056.41,4186.15,4074.36,3866.15,4445.64,4173.33,4570.26,4526.15,4280.51,3934.36,4246.15,4597.44,4368.72,4626.67,1692,1711,4.12,0,0,0,0,
37,4058.46,4196.41,4076.41,3868.21,4443.08,4171.28,4568.72,4522.56,4284.62,3931.79,4248.21,4596.92,4373.85,4637.95,1691,1711,4.128,0,0,0,0,
38,4067.18,4202.05,4086.67,3878.46,4444.1,4170.26,4569.74,4524.1,4279.49,3936.41,4254.87,4603.08,4377.44,4644.62,1691,1711,4.136,0,0,0,0,
39,4070.26,4193.85,4087.18,3881.03,4446.67,4172.31,4571.28,4523.08,4278.46,3943.08,4259.49,4604.1,4384.1,4641.54,1690,1711,4.144,0,0,0,0,
40,4067.69,4192.82,4083.08,3876.41,4445.64,4176.41,4569.74,4524.62,4292.31,3949.23,4262.56,4604.62,4395.38,4640.51,1691,1711,4.151,0,0,0,0,
41,4067.69,4203.08,4090.77,3881.54,4444.62,4174.36,4569.23,4526.67,4299.49,3958.46,4265.64,4609.23,4402.05,4649.74,1690,1709,4.159,0,0,0,0,
42,4070.26,4204.1,4095.9,3884.62,4444.1,4173.85,4570.26,4522.05,4283.08,3946.67,4253.33,4604.62,4392.31,4651.28,1690,1711,4.167,0,0,0,0,
43,4066.15,4193.85,4087.18,3872.82,4444.1,4181.03,4569.23,4517.95,4270.26,3920,4243.08,4595.38,4380.51,4645.13,1692,1709,4.175,0,0,0,0,
44,4059.49,4194.36,4079.49,3869.23,4443.59,4178.97,4569.23,4523.08,4285.64,3927.18,4258.97,4597.95,4389.74,4648.21,1691,1709,4.183,0,0,0,0,
45,4063.59,4198.97,4080,3872.31,4443.59,4169.74,4569.74,4527.18,4293.85,3948.21,4263.59,4603.08,4394.36,4642.56,1692,1707,4.19,0,0,0,0,
46,4062.56,4191.79,4081.03,3865.64,4443.59,4174.87,4569.74,4522.56,4278.46,3940.51,4246.15,4596.92,4378.46,4627.69,1692,1708,4.198,0,0,0,0,
47,4048.21,4182.05,4080,3864.62,4442.56,4186.67,4572.31,4523.59,4275.38,3930.26,4245.64,4594.36,4368.72,4627.18,1694,1707,4.206,0,0,0,0,
48,4047.69,4186.67,4083.59,3875.9,4443.59,4184.62,4572.82,4533.33,4289.74,3937.44,4253.85,4600,4377.95,4633.85,1693,1707,4.214,0,0,0,0,
49,4055.38,4189.23,4091.28,3877.95,4443.08,4174.36,4572.82,4540,4296.92,3943.59,4250.26,4603.59,4384.1,4633.85,1694,1708,4.222,0,0,0,0,
50,4052.82,4182.56,4092.82,3873.85,4433.33,4175.9,4579.49,4541.54,4297.44,3942.56,4247.18,4601.54,4376.41,4627.18,1693,1709,4.23,0,0,0,0,
51,4058.97,4185.13,4091.79,3880,4429.23,4183.59,4586.15,4543.08,4297.44,3938.97,4249.23,4602.05,4370.77,4624.1,1694,1710,4.237,0,0,0,0,
52,4069.74,4190.77,4095.9,3877.95,4440,4178.46,4584.62,4540.51,4290.77,3932.31,4248.72,4603.08,4368.72,4629.74,1693,1710,4.245,0,0,0,0,
53,4063.59,4187.18,4101.03,3869.23,4444.62,4170.77,4582.05,4538.97,4288.72,3932.31,4246.67,4601.03,4369.74,4636.41,1692,1712,4.253,0,0,0,0,
54,4063.59,4184.62,4100.51,3871.28,4437.95,4179.49,4585.13,4541.54,4295.38,3944.62,4245.13,4601.54,4366.67,4631.28,1692,1710,4.261,0,0,0,0,
55,4071.28,4186.15,4096.92,3880.51,4440.51,4186.67,4587.69,4539.49,4290.26,3945.13,4249.23,4603.08,4360.51,4625.64,1690,1712,4.269,0,0,0,0,
56,4063.59,4187.69,4094.87,3876.92,4446.15,4184.1,4586.15,4534.87,4278.97,3930.26,4246.67,4602.05,4359.49,4629.23,1692,1711,4.276,0,0,0,0,
57,4056.92,4185.13,4096.41,3864.62,4438.97,4184.1,4583.08,4536.92,4279.49,3924.1,4237.95,4601.03,4354.87,4627.18,1690,1710,4.284,0,0,0,0,
58,4066.67,4183.59,4100,3863.08,4432.82,4183.59,4582.05,4539.49,4289.23,3927.18,4236.41,4600.51,4352.31,4619.49,1690,1710,4.292,0,0,0,0,
59,4075.38,4184.1,4101.54,3866.67,4442.56,4185.64,4586.67,4538.97,4296.41,3926.67,4238.46,4603.08,4360,4624.1,1690,1709,4.3,0,0,0,0,
60,4066.15,4184.1,4106.15,3863.08,4445.64,4185.64,4582.56,4538.46,4296.41,3930.77,4241.03,4610.77,4365.13,4633.33,1691,1710,4.308,0,0,0,0,
61,4059.49,4185.13,4111.79,3862.05,4435.9,4173.33,4571.28,4538.46,4292.31,3938.46,4249.74,4615.9,4364.1,4632.82,1691,1709,4.316,0,0,0,0,
62,4068.21,4186.67,4108.21,3873.33,4434.87,4172.31,4571.28,4538.46,4292.82,3940,4250.77,4615.9,4370.77,4634.87,1690,1709,4.323,0,0,0,0,
63,4080,4192.31,4111.28,3880,4444.62,4181.03,4580.51,4539.49,4296.92,3938.46,4244.62,4616.92,4370.26,4647.69,1690,1709,4.331,0,0,0,0,
64,4090.26,4201.54,4122.05,3879.49,4444.62,4178.97,4582.56,4541.54,4294.87,3939.49,4258.46,4618.46,4362.05,4657.95,1691,1709,4.339,0,0,0,0,
65,4093.85,4203.59,4116.92,3882.05,4436.41,4178.46,4579.49,4538.97,4291.79,3945.13,4267.18,4618.97,4371.79,4653.33,1690,1709,4.347,0,0,0,0,
66,4081.03,4195.38,4105.64,3874.87,4435.9,4184.62,4581.54,4538.97,4294.87,3946.15,4251.79,4619.49,4381.54,4641.54,1690,1710,4.355,0,0,0,0,
67,4062.05,4184.1,4106.67,3861.03,4442.05,4182.05,4582.56,4545.13,4296.92,3933.33,4250.77,4616.92,4376.92,4643.59,1690,1710,4.362,0,0,0,0,
68,4056.41,4172.82,4104.62,3862.05,4442.56,4182.56,4583.59,4545.13,4296.92,3926.67,4260.51,4614.87,4368.21,4643.59,1691,1710,4.37,0,0,0,0,
69,4061.54,4172.31,4099.49,3869.74,4435.9,4184.62,4582.05,4540,4294.87,3934.87,4253.85,4613.33,4363.59,4629.74,1690,1709,4.378,0,0,0,0,
70,4068.21,4182.56,4106.15,3864.62,4429.23,4173.85,4574.87,4538.46,4291.28,3933.33,4243.08,4606.67,4366.15,4624.1,1690,1710,4.386,0,0,0,0,
71,4068.21,4184.62,4105.13,3860.51,4431.79,4171.79,4575.9,4541.54,4291.28,3927.18,4247.18,4602.56,4364.62,4631.79,1691,1709,4.394,0,0,0,0,
72,4057.95,4178.46,4089.74,3863.08,4435.9,4183.59,4584.62,4541.03,4295.38,3938.97,4248.72,4604.1,4358.97,4634.36,1691,1711,4.402,0,0,0,0,
73,4056.41,4182.05,4090.77,3863.08,4434.36,4185.64,4587.18,4540,4297.95,3948.21,4247.18,4609.74,4361.03,4630.26,1692,1709,4.409,0,0,0,0,
74,4061.54,4183.59,4105.13,3861.54,4433.85,4181.03,4578.97,4538.97,4290.26,3936.41,4246.15,4609.74,4365.13,4633.33,1690,1711,4.417,0,0,0,0,
75,4060.51,4177.44,4105.13,3862.05,4434.87,4181.54,4572.31,4533.85,4278.46,3926.67,4237.44,4603.08,4356.92,4633.85,1692,1708,4.425,0,0,0,0,
76,4061.03,4180,4096.41,3863.59,4433.85,4182.56,4571.28,4532.31,4279.49,3927.18,4236.41,4598.97,4352.82,4625.64,1692,1706,4.433,0,0,0,0,
77,4062.05,4183.59,4093.33,3863.59,4432.82,4182.56,4572.31,4535.9,4287.69,3929.23,4248.21,4600,4356.92,4624.62,1692,1707,4.441,0,0,0,0,
78,4062.05,4181.03,4096.41,3868.72,4430.77,4183.08,4573.33,4537.44,4288.72,3933.85,4251.79,4601.54,4357.44,4633.33,1692,1707,4.448,0,0,0,0,
79,4069.74,4189.74,4103.08,3877.95,4429.23,4184.1,4571.79,4533.85,4285.64,3938.97,4245.64,4602.05,4363.59,4633.85,1692,1709,4.456,0,0,0,0,
80,4076.41,4202.05,4107.69,3880.51,4431.28,4184.62,4571.28,4533.33,4288.21,3941.03,4247.69,4604.62,4377.44,4633.85,1691,1710,4.464,0,0,0,0,
81,4065.64,4193.85,4102.05,3876.92,4429.74,4178.46,4572.31,4535.38,4291.28,3939.49,4253.85,4603.08,4374.87,4636.92,1692,1711,4.472,0,0,0,0,
82,4051.28,4182.05,4092.31,3877.44,4421.03,4174.87,4572.82,4536.92,4292.31,3941.54,4246.15,4596.41,4362.56,4626.67,1692,1710,4.48,0,0,0,0,
83,4054.87,4187.69,4090.26,3877.95,4421.03,4182.05,4573.33,4540.51,4296.92,3944.1,4240.51,4594.36,4369.74,4619.49,1690,1711,4.488,0,0,0,0,
84,4070.26,4191.79,4092.82,3871.28,4428.21,4180.51,4572.31,4540,4298.97,3942.56,4248.21,4601.54,4378.46,4629.74,1691,1709,4.495,0,0,0,0,
85,4069.23,4186.67,4094.36,3863.59,4424.62,4170.77,4570.77,4538.97,4296.41,3942.05,4253.85,4607.18,4368.21,4632.82,1689,1710,4.503,0,0,0,0,
86,4053.85,4182.05,4088.21,3860.51,4419.49,4175.9,4570.77,4538.97,4293.85,3944.1,4248.21,4602.05,4360.51,4628.72,1690,1710,4.511,0,0,0,0,
87,4056.92,4183.08,4084.62,3865.13,4425.64,4187.18,4573.33,4540.51,4295.38,3943.59,4247.18,4597.95,4366.67,4634.87,1689,1711,4.519,0,0,0,0,
88,4060.51,4185.64,4089.23,3876.92,4431.28,4184.1,4572.31,4540.51,4297.44,3941.54,4253.33,4602.56,4371.79,4632.82,1689,1713,4.527,0,0,0,0,
89,4043.08,4186.67,4091.79,3876.41,4428.21,4178.97,4568.72,4533.85,4291.79,3942.05,4245.64,4602.05,4372.31,4616.41,1690,1713,4.535,0,0,0,0,
90,4043.59,4185.13,4089.74,3862.05,4426.67,4185.64,4569.23,4527.69,4284.1,3941.03,4235.9,4598.46,4370.26,4616.92,1689,1713,4.542,0,0,0,0,
91,4061.03,4182.56,4090.26,3860.51,4425.13,4186.15,4570.77,4533.85,4292.31,3940,4251.79,4602.56,4363.08,4628.72,1689,1711,4.55,0,0,0,0,
92,4055.38,4182.56,4095.9,3871.28,4422.56,4173.33,4573.33,4544.1,4309.74,3947.18,4269.74,4606.15,4367.69,4629.23,1690,1710,4.558,0,0,0,0,
93,4041.54,4182.56,4091.79,3868.72,4424.62,4174.36,4579.49,4543.08,4306.15,3943.08,4258.46,4604.62,4381.03,4625.64,1691,1708,4.566,0,0,0,0,
94,4042.56,4181.03,4084.1,3858.46,4423.59,4183.08,4577.44,4539.49,4291.28,3931.28,4243.08,4601.54,4377.95,4625.64,1690,1709,4.574,0,0,0,0,
95,4046.15,4181.54,4087.18,3860,4420.51,4175.9,4570.77,4539.49,4291.28,3936.92,4247.18,4600.51,4366.15,4623.59,1692,1708,4.581,0,0,0,0,
96,4050.77,4183.59,4093.85,3864.62,4424.1,4171.79,4570.77,4535.9,4293.85,3945.13,4256.41,4600.51,4368.21,4624.1,1691,1708,4.589,0,0,0,0,
97,4062.05,4185.13,4094.36,3863.08,4429.74,4183.08,4570.77,4533.33,4292.31,3941.03,4260,4610.26,4376.41,4634.36,1693,1709,4.597,0,0,0,0,
98,4061.54,4184.62,4090.77,3863.59,4429.23,4186.67,4570.26,4535.38,4293.85,3942.56,4256.41,4618.46,4375.38,4638.46,1693,1707,4.605,0,0,0,0,
99,4049.74,4182.05,4089.23,3866.67,4429.74,4183.08,4577.95,4536.92,4295.38,3950.26,4249.23,4608.21,4374.87,4623.59,1693,1710,4.615,0,0,0,0,
100,4051.28,4182.56,4091.28,3867.18,4431.28,4186.67,4583.08,4536.92,4295.9,3948.72,4248.72,4598.46,4379.49,4614.87,1693,1709,4.621,0,0,0,0,
101,4062.56,4187.69,4094.36,3865.13,4430.77,4187.69,4581.54,4537.95,4296.41,3945.13,4251.79,4601.54,4383.59,4629.23,1692,1711,4.628,0,0,0,0,
102,4058.97,4187.69,4093.33,3866.15,4430.77,4185.64,4583.08,4539.49,4293.33,3943.08,4247.18,4604.62,4377.95,4636.41,1692,1711,4.636,0,0,0,0,
103,4044.62,4184.62,4092.31,3865.13,4429.23,4185.64,4584.62,4540,4290.77,3935.38,4245.13,4602.05,4362.05,4625.64,1691,1713,4.644,0,0,0,0,
104,4038.97,4178.46,4092.82,3860,4425.13,4184.1,4583.59,4540,4290.77,3927.18,4249.23,4600.51,4355.38,4616.92,1691,1712,4.652,0,0,0,0,
105,4047.69,4171.28,4091.28,3858.46,4426.15,4183.59,4585.13,4538.46,4287.18,3927.18,4243.59,4599.49,4363.08,4615.9,1690,1711,4.66,0,0,0,0,
106,4058.97,4175.9,4091.79,3863.59,4425.13,4186.15,4585.13,4539.49,4287.18,3938.97,4231.79,4598.46,4368.21,4618.97,1690,1709,4.667,0,0,0,0,
107,4063.08,4185.64,4096.41,3867.69,4421.03,4188.21,4584.1,4544.1,4295.38,3943.59,4236.41,4601.54,4365.13,4625.13,1688,1708,4.675,0,0,0,0,
108,4060.51,4186.15,4101.03,3865.13,4424.62,4188.72,4586.67,4547.18,4298.46,3932.31,4252.82,4601.54,4366.15,4626.67,1690,1708,4.683,0,0,0,0,
109,4056.41,4184.62,4099.49,3861.54,4430.26,4185.13,4584.1,4541.54,4289.74,3929.74,4250.26,4602.05,4371.28,4626.67,1688,1708,4.691,0,0,0,0,
110,4050.77,4180,4093.33,3859.49,4424.1,4182.56,4573.85,4527.69,4279.49,3933.33,4235.38,4599.49,4366.15,4623.59,1688,1710,4.699,0,0,0,0,
111,4047.18,4170.77,4090.26,3861.03,4416.41,4183.59,4569.74,4523.08,4276.41,3929.74,4237.44,4591.79,4352.82,4617.44,1688,1709,4.707,0,0,0,0,
112,4046.15,4168.72,4091.79,3865.13,4415.38,4177.95,4573.33,4529.23,4276.41,3923.08,4241.54,4588.21,4347.18,4613.33,1688,1710,4.714,0,0,0,0,
113,4043.59,4171.28,4089.74,3862.56,4412.31,4173.85,4575.9,4530.77,4274.87,3917.44,4233.33,4587.18,4356.92,4608.21,1689,1709,4.722,0,0,0,0,
114,4042.56,4170.26,4088.72,3858.97,4407.18,4180,4580.51,4531.79,4278.46,3918.46,4230.26,4589.23,4368.21,4608.72,1690,1710,4.73,0,0,0,0,
115,4040,4171.79,4090.77,3864.1,4404.62,4183.59,4582.05,4535.9,4282.56,3929.23,4233.85,4591.28,4363.08,4613.33,1690,1711,4.738,0,0,0,0,
116,4031.79,4171.79,4090.77,3859.49,4408.21,4182.56,4575.38,4537.95,4286.15,3938.97,4235.9,4587.18,4355.9,4612.82,1691,1712,4.746,0,0,0,0,
117,4029.74,4167.69,4088.72,3847.18,4414.87,4183.59,4572.31,4535.9,4294.36,3943.08,4244.1,4591.28,4360.51,4613.33,1692,1712,4.753,0,0,0,0,
118,4040.51,4172.82,4089.74,3852.31,4413.33,4176.92,4573.85,4534.87,4293.85,3942.05,4252.82,4606.15,4369.74,4619.49,1690,1713,4.761,0,0,0,0,
119,4050.26,4183.08,4095.38,3866.15,4405.64,4168.21,4571.28,4536.41,4286.67,3938.97,4247.18,4609.74,4373.33,4624.1,1691,1710,4.769,0,0,0,0,
120,4046.67,4177.95,4099.49,3864.62,4402.05,4168.72,4567.69,4534.87,4285.64,3939.49,4247.69,4602.05,4365.13,4629.23,1690,1710,4.777,0,0,0,0,
121,4042.56,4170.26,4096.41,3857.95,4404.62,4170.26,4567.18,4526.67,4286.15,3935.9,4256.41,4605.13,4356.92,4634.36,1690,1708,4.785,0,0,0,0,
122,4043.08,4170.26,4088.72,3858.46,4408.72,4171.28,4567.69,4525.13,4283.59,3925.64,4242.05,4606.67,4362.56,4627.69,1689,1709,4.793,0,0,0,0,
123,4046.67,4168.72,4092.31,3861.03,4412.82,4177.95,4570.26,4536.41,4286.67,3927.69,4228.72,4603.08,4371.79,4622.05,1690,1708,4.8,0,0,0,0,
124,4055.38,4174.87,4105.64,3863.59,4412.31,4181.03,4572.31,4538.97,4293.85,3944.1,4249.23,4609.74,4375.9,4633.85,1689,1710,4.808,0,0,0,0,
125,4058.97,4184.1,4104.62,3863.59,4412.82,4182.56,4572.82,4534.36,4294.87,3952.82,4265.64,4614.36,4380,4646.67,1690,1709,4.816,0,0,0,0,
126,4047.69,4173.85,4091.79,3860,4412.82,4186.67,4573.33,4539.49,4296.92,3948.72,4260,4609.23,4384.1,4639.49,1689,1710,4.824,0,0,0,0,
127,4040.51,4164.62,4089.23,3861.03,4406.15,4183.08,4572.31,4542.56,4298.46,3943.59,4258.97,4608.72,4383.59,4632.82,1690,1712,4.832,0,0,0,0,
128,4045.13,4173.33,4094.36,3861.54,4404.1,4171.28,4569.74,4535.38,4293.33,3943.08,4256.92,4606.67,4378.97,4632.82,1690,1711,4.839,0,0,0,0,
0,4047.18,4174.36,4093.33,3863.08,4410.26,4171.79,4570.26,4534.87,4290.26,3944.1,4250.26,4599.49,4372.82,4624.62,1691,1712,4.848,0,0,0,0,
1,4046.15,4166.15,4090.26,3861.54,4411.79,4183.08,4572.31,4537.95,4291.79,3937.95,4251.79,4601.03,4365.64,4612.82,1691,1710,4.855,0,0,0,0,
2,4044.1,4167.69,4089.74,3850.77,4410.26,4185.64,4572.31,4537.95,4290.77,3926.67,4242.05,4601.03,4361.03,4608.21,1691,1712,4.863,0,0,0,0,
3,4042.05,4171.28,4089.74,3849.23,4412.82,4182.05,4571.79,4536.92,4293.33,3928.21,4234.87,4589.23,4364.1,4611.28,1691,1711,4.871,0,0,0,0,
4,4043.59,4168.72,4095.9,3862.05,4416.41,4185.13,4574.87,4538.97,4296.92,3943.59,4248.72,4588.21,4365.64,4617.44,1690,1710,4.879,0,0,0,0,
5,4047.69,4172.31,4098.97,3865.64,4419.49,4187.18,4575.9,4536.41,4289.74,3944.1,4252.31,4600,4360.51,4618.97,1690,1710,4.886,0,0,0,0,
6,4050.77,4183.08,4094.87,3858.97,4420,4185.13,4572.82,4531.28,4282.05,3925.64,4241.03,4599.49,4361.03,4616.41,1690,1710,4.894,0,0,0,0,
7,4050.26,4185.64,4093.33,3860,4414.36,4183.08,4573.33,4534.87,4287.69,3923.59,4245.13,4594.87,4364.62,4618.97,1690,1709,4.902,0,0,0,0,
8,4056.41,4183.08,4096.41,3865.13,4413.33,4182.05,4574.87,4538.97,4293.85,3936.92,4252.31,4600,4359.49,4620.51,1688,1709,4.91,0,0,0,0,
9,4061.03,4186.67,4097.44,3865.64,4420,4184.1,4573.85,4537.44,4292.31,3933.85,4243.59,4600,4356.41,4615.38,1689,1710,4.918,0,0,0,0,
10,4044.62,4181.54,4094.36,3861.54,4421.54,4185.64,4573.33,4538.46,4294.36,3928.21,4244.1,4593.33,4358.46,4614.87,1688,1710,4.925,0,0,0,0,
11,4030.77,4173.85,4092.31,3858.46,4417.44,4182.05,4572.31,4539.49,4293.85,3941.54,4255.38,4598.46,4361.54,4615.9,1688,1713,4.933,0,0,0,0,
12,4043.08,4181.54,4095.38,3864.1,4415.9,4182.05,4571.28,4531.28,4285.13,3946.15,4253.33,4603.59,4364.62,4614.36,1689,1711,4.941,0,0,0,0,
13,4054.36,4188.72,4099.49,3869.23,4416.92,4186.67,4569.23,4521.54,4278.97,3926.15,4243.08,4599.49,4364.62,4618.97,1687,1712,4.949,0,0,0,0,
14,4055.38,4183.59,4098.97,3865.13,4420.51,4187.18,4569.23,4527.69,4282.05,3922.05,4245.64,4596.92,4362.05,4627.69,1689,1711,4.957,0,0,0,0,
15,4060,4182.56,4100,3861.03,4426.15,4183.59,4575.9,4539.49,4291.28,3933.33,4251.28,4602.05,4361.54,4631.28,1687,1710,4.965,0,0,0,0,
16,4058.97,4185.64,4106.15,3860,4427.69,4184.1,4583.08,4541.03,4294.87,3927.69,4248.21,4602.56,4363.08,4630.77,1688,1710,4.972,0,0,0,0,
17,4058.46,4185.13,4105.64,3864.1,4425.64,4184.62,4583.08,4539.49,4294.36,3929.74,4247.69,4602.05,4366.67,4632.82,1687,1710,4.98,0,0,0,0,
18,4061.54,4185.13,4097.95,3866.67,4425.64,4183.08,4581.54,4541.03,4292.82,3942.05,4249.74,4601.54,4367.18,4627.69,1687,1710,4.988,0,0,0,0,
19,4053.33,4186.67,4091.28,3862.56,4426.67,4185.13,4584.62,4540,4292.82,3933.85,4247.69,4590.26,4364.1,4618.46,1687,1710,4.996,0,0,0,0,
20,4052.31,4184.62,4090.26,3860,4426.67,4189.74,4586.15,4538.97,4294.87,3926.67,4247.18,4585.13,4358.97,4614.87,1687,1710,5.004,0,0,0,0,
21,4060,4175.38,4092.31,3864.62,4426.67,4188.21,4584.62,4545.64,4296.92,3940,4249.23,4597.44,4352.31,4613.85,1686,1709,5.012,0,0,0,0,
22,4053.33,4165.13,4091.79,3864.62,4425.64,4185.13,4585.64,4549.74,4297.44,3947.69,4251.28,4604.1,4362.05,4619.49,1686,1710,5.019,0,0,0,0,
23,4051.79,4174.36,4092.82,3861.03,4426.67,4184.62,4584.62,4543.59,4295.38,3941.54,4252.31,4601.03,4382.56,4635.9,1687,1709,5.027,0,0,0,0,
24,4063.59,4184.62,4095.38,3860.51,4428.21,4183.08,4580.51,4537.44,4294.36,3938.46,4251.28,4602.56,4381.03,4640,1686,1711,5.035,0,0,0,0,
25,4058.97,4174.87,4093.85,3863.08,4427.18,4183.59,4582.05,4539.49,4297.44,3940.51,4246.67,4602.05,4366.67,4631.79,1687,1712,5.043,0,0,0,0,
26,4050.77,4173.85,4091.79,3872.31,4427.18,4185.64,4587.18,4549.74,4303.59,3942.05,4249.74,4602.05,4364.62,4633.33,1687,1712,5.051,0,0,0,0,
27,4061.03,4183.08,4095.38,3877.95,4432.31,4186.15,4587.69,4554.36,4307.18,3944.1,4255.9,4608.72,4368.21,4638.97,1688,1712,5.058,0,0,0,0,
28,4064.62,4178.46,4097.44,3869.74,4433.85,4184.1,4582.05,4547.18,4305.64,3944.62,4251.28,4608.21,4363.08,4634.36,1688,1710,5.066,0,0,0,0,
29,4052.82,4167.69,4095.38,3861.54,4430.26,4183.08,4579.49,4537.44,4297.44,3933.85,4242.05,4601.03,4355.9,4624.62,1689,1710,5.074,0,0,0,0,
30,4048.21,4167.69,4091.79,3858.97,4430.77,4184.62,4581.54,4538.97,4288.21,3921.54,4237.44,4597.44,4348.21,4617.95,1688,1708,5.082,0,0,0,0,
31,4054.87,4172.31,4090.77,3858.97,4434.87,4185.64,4575.9,4542.05,4294.87,3931.28,4239.49,4600.51,4352.31,4620.51,1689,1710,5.09,0,0,0,0,
32,4068.21,4182.56,4095.9,3870.26,4436.41,4185.64,4571.79,4538.97,4308.21,3946.67,4252.82,4613.33,4371.28,4637.44,1689,1710,5.098,0,0,0,0,
33,4085.13,4192.31,4105.64,3884.1,4442.56,4185.64,4581.03,4544.62,4312.31,3953.33,4264.62,4630.26,4386.15,4657.44,1689,1711,5.105,0,0,0,0,
34,4094.36,4190.26,4117.95,3880.51,4455.38,4188.21,4588.72,4553.33,4310.77,3954.87,4267.69,4634.36,4386.15,4666.15,1690,1710,5.113,0,0,0,0,
35,4087.69,4185.13,4118.46,3874.36,4461.03,4188.21,4584.1,4546.67,4305.64,3948.72,4264.62,4625.64,4375.9,4658.46,1689,1712,5.121,0,0,0,0,
36,4075.9,4187.69,4104.62,3880,4458.97,4187.69,4583.08,4535.9,4296.41,3941.54,4254.87,4616.41,4367.69,4640.51,1691,1711,5.129,0,0,0,0,
37,4076.41,4194.87,4096.41,3881.03,4459.49,4189.23,4586.15,4536.92,4290.26,3935.38,4244.62,4607.69,4365.13,4631.28,1689,1711,5.137,0,0,0,0,
38,4073.85,4190.26,4094.87,3874.36,4461.03,4188.21,4579.49,4537.95,4284.1,3916.92,4245.13,4600.51,4356.92,4634.87,1690,1713,5.144,0,0,0,0,
39,4060.51,4180.51,4091.79,3874.87,4460.51,4186.67,4571.79,4533.85,4278.97,3911.79,4247.18,4598.46,4349.74,4633.85,1690,1713,5.152,0,0,0,0,
40,4062.56,4186.15,4093.85,3879.49,4461.54,4186.15,4574.36,4536.92,4288.21,3933.33,4247.69,4602.05,4360.51,4630.26,1690,1712,5.16,0,0,0,0,
41,4075.9,4188.21,4098.46,3873.33,4459.49,4183.59,4573.85,4541.54,4298.97,3935.38,4249.74,4608.21,4370.77,4635.9,1689,1710,5.168,0,0,0,0,
42,4080,4183.59,4096.41,3870.77,4459.49,4182.05,4569.74,4538.97,4291.28,3921.54,4248.72,4610.77,4366.15,4640,1689,1707,5.176,0,0,0,0,
43,4073.33,4190.26,4094.87,3879.49,4471.28,4186.67,4575.9,4536.92,4285.13,3929.23,4244.1,4608.21,4361.54,4632.82,1689,1705,5.184,0,0,0,0,
44,4061.54,4192.82,4097.95,3879.49,4478.46,4188.72,4579.49,4538.97,4292.82,3945.13,4251.28,4609.23,4367.69,4629.74,1688,1705,5.191,0,0,0,0,
45,4058.46,4181.54,4100,3873.33,4475.38,4185.64,4571.79,4539.49,4295.38,3945.13,4263.08,4614.87,4379.49,4642.05,1688,1708,5.199,0,0,0,0,
46,4078.97,4189.74,4104.1,3876.41,4476.92,4185.64,4576.41,4538.97,4293.33,3940.51,4268.21,4617.95,4388.21,4654.87,1689,1710,5.207,0,0,0,0,
47,4091.79,4202.56,4106.15,3881.54,4480.51,4187.69,4587.69,4539.49,4296.41,3943.59,4265.64,4620,4385.13,4655.9,1689,1711,5.215,0,0,0,0,
48,4075.9,4190.77,4101.03,3877.44,4476.92,4187.18,4584.62,4538.97,4295.38,3938.46,4257.95,4618.46,4377.44,4649.23,1689,1712,5.223,0,0,0,0,
49,4070.26,4181.54,4100,3876.92,4474.36,4187.18,4580.51,4538.97,4290.77,3929.23,4249.74,4613.85,4373.33,4646.15,1690,1712,5.23,0,0,0,0,
50,4078.46,4189.74,4106.67,3881.03,4476.92,4189.74,4585.13,4540,4295.38,3930.26,4248.72,4613.85,4368.72,4646.15,1690,1713,5.238,0,0,0,0,
51,4074.87,4187.69,4107.18,3874.87,4476.41,4188.72,4587.69,4546.15,4300,3931.79,4249.23,4615.9,4364.62,4644.1,1690,1712,5.246,0,0,0,0,
52,4068.72,4180,4100.51,3863.59,4472.82,4185.13,4585.64,4550.77,4299.49,3931.79,4246.15,4611.79,4367.18,4641.03,1690,1712,5.254,0,0,0,0,
53,4071.79,4181.54,4097.95,3864.1,4470.77,4188.72,4590.77,4553.85,4305.13,3939.49,4249.74,4614.36,4370.26,4639.49,1691,1709,5.262,0,0,0,0,
54,4066.15,4176.41,4098.46,3867.69,4472.31,4201.03,4601.54,4563.59,4316.41,3946.15,4252.31,4618.46,4365.13,4633.33,1689,1709,5.27,0,0,0,0,
55,4049.23,4166.15,4094.87,3862.56,4471.28,4200.51,4596.41,4563.59,4315.38,3940,4242.56,4606.67,4354.87,4621.54,1690,1708,5.277,0,0,0,0,
56,4050.77,4169.74,4092.82,3863.08,4470.77,4185.64,4579.49,4542.56,4302.05,3936.41,4240.51,4595.9,4355.38,4616.92,1689,1708,5.285,0,0,0,0,
57,4062.56,4176.41,4094.87,3867.18,4474.87,4182.56,4578.46,4531.79,4297.95,3941.54,4248.21,4599.49,4364.62,4616.41,1689,1710,5.293,0,0,0,0,
58,4058.46,4171.79,4088.72,3862.56,4474.36,4189.23,4586.15,4545.64,4302.05,3941.54,4249.74,4602.05,4361.54,4614.36,1688,1709,5.301,0,0,0,0,
59,4045.13,4166.15,4075.9,3860.51,4469.74,4187.69,4584.62,4553.85,4308.21,3942.56,4246.67,4600,4361.03,4621.03,1688,1710,5.309,0,0,0,0,
60,4039.49,4170.77,4073.85,3867.69,4465.64,4184.1,4583.08,4552.31,4315.9,3948.21,4248.72,4601.03,4363.59,4628.21,1688,1710,5.317,0,0,0,0,
61,4036.41,4170.77,4079.49,3869.74,4464.62,4187.69,4584.62,4553.85,4318.46,3947.18,4250.77,4601.03,4349.74,4621.03,1688,1711,5.324,0,0,0,0,
62,4032.82,4157.95,4079.49,3857.44,4458.97,4187.69,4583.08,4552.31,4310.26,3931.79,4247.69,4598.46,4340.51,4610.77,1689,1711,5.332,0,0,0,0,
63,4035.9,4151.28,4076.92,3847.69,4448.21,4183.59,4583.08,4551.28,4305.13,3921.03,4244.62,4597.95,4350.77,4609.74,1689,1712,5.34,0,0,0,0,
64,4037.95,4154.36,4077.95,3848.72,4449.74,4188.72,4587.18,4553.33,4308.72,3930.26,4245.13,4599.49,4356.92,4611.28,1691,1710,5.348,0,0,0,0,
65,4033.33,4152.82,4080.51,3849.23,4454.36,4198.46,4590.26,4553.33,4305.13,3940.51,4248.21,4602.56,4351.28,4615.9,1690,1710,5.356,0,0,0,0,
66,4034.36,4150.26,4080.51,3850.77,4445.13,4193.85,4590.26,4548.72,4297.44,3933.33,4247.18,4603.08,4352.82,4615.38,1692,1708,5.363,0,0,0,0,
67,4041.54,4153.85,4078.97,3860.51,4437.95,4182.56,4586.15,4541.03,4291.79,3921.03,4242.05,4600,4354.87,4606.15,1692,1706,5.371,0,0,0,0,
68,4047.69,4159.49,4083.59,3864.62,4442.56,4181.54,4583.08,4538.46,4290.77,3928.21,4245.13,4604.1,4358.46,4612.82,1692,1707,5.379,0,0,0,0,
69,4052.82,4160,4094.36,3852.82,4437.44,4184.62,4585.13,4550.77,4302.05,3943.08,4260.51,4617.44,4370.77,4640.51,1693,1706,5.387,0,0,0,0,
70,4056.41,4155.38,4097.44,3847.18,4433.33,4184.1,4586.15,4556.92,4310.26,3945.13,4270.26,4623.59,4381.03,4652.31,1692,1709,5.395,0,0,0,0,
71,4054.36,4149.74,4088.72,3849.23,4440.51,4184.62,4583.59,4542.56,4297.95,3940,4256.92,4612.31,4381.03,4638.97,1693,1709,5.403,0,0,0,0,
72,4049.23,4151.28,4081.03,3847.69,4444.1,4183.59,4583.59,4537.95,4289.23,3937.44,4243.08,4600,4374.87,4629.74,1692,1711,5.41,0,0,0,0,
73,4050.26,4153.33,4075.38,3854.87,4450.26,4185.13,4587.18,4553.33,4304.62,3938.97,4247.18,4600,4374.36,4632.82,1692,1711,5.418,0,0,0,0,
74,4050.77,4150.26,4068.72,3860,4462.56,4189.23,4586.15,4558.46,4315.38,3943.08,4252.31,4601.54,4374.36,4634.36,1691,1712,5.426,0,0,0,0,
75,4045.64,4148.21,4068.21,3854.36,4470.77,4188.72,4583.59,4551.28,4309.23,3942.05,4250.77,4598.46,4369.23,4630.26,1692,1711,5.434,0,0,0,0,
76,4044.62,4152.31,4074.87,3854.36,4473.85,4186.67,4586.15,4555.9,4310.77,3933.33,4250.26,4596.92,4373.85,4622.56,1692,1712,5.442,0,0,0,0,
77,4050.26,4157.44,4081.03,3860.51,4475.38,4186.15,4587.18,4561.03,4316.92,3930.77,4253.33,4600.51,4380.51,4621.03,1693,1712,5.449,0,0,0,0,
78,4054.87,4155.38,4084.1,3857.95,4472.82,4185.64,4584.62,4555.9,4314.87,3937.95,4258.97,4609.23,4378.97,4635.38,1692,1710,5.457,0,0,0,0,
79,4060.51,4155.9,4085.64,3860.51,4471.79,4187.18,4585.64,4555.9,4312.31,3947.18,4263.08,4617.44,4381.54,4652.82,1691,1709,5.465,0,0,0,0,
80,4062.05,4155.9,4082.05,3866.67,4474.36,4188.72,4590.26,4568.72,4318.97,3947.18,4254.87,4611.28,4382.05,4643.08,1692,1705,5.473,0,0,0,0,
81,4048.72,4145.13,4077.95,3858.46,4475.9,4188.72,4591.28,4577.95,4329.74,3945.13,4240.51,4598.97,4364.62,4623.08,1691,1705,5.481,0,0,0,0,
82,4041.54,4142.56,4084.62,3854.87,4473.85,4187.18,4586.67,4567.69,4326.67,3945.13,4240,4599.49,4352.31,4625.64,1692,1705,5.489,0,0,0,0,
83,4055.9,4151.79,4092.31,3856.41,4472.82,4186.15,4582.56,4551.28,4305.64,3934.36,4250.26,4608.72,4360,4639.49,1690,1707,5.496,0,0,0,0,
84,4064.1,4155.9,4092.31,3848.72,4477.44,4186.15,4582.56,4548.72,4296.92,3929.23,4258.97,4613.85,4373.85,4645.13,1692,1709,5.504,0,0,0,0,
85,4058.97,4153.85,4087.69,3851.79,4477.44,4185.13,4584.1,4557.44,4314.87,3942.05,4263.59,4616.92,4382.05,4646.67,1691,1710,5.512,0,0,0,0,
86,4064.1,4155.9,4089.23,3866.15,4473.33,4183.59,4585.13,4561.03,4325.64,3950.26,4269.23,4620,4379.49,4644.62,1693,1711,5.52,0,0,0,0,
87,4073.33,4156.92,4091.28,3868.72,4474.87,4184.1,4584.62,4554.87,4313.85,3941.54,4265.13,4617.95,4373.85,4640.51,1692,1711,5.528,0,0,0,0,
88,4064.62,4153.85,4086.67,3862.56,4478.97,4185.64,4583.08,4550.77,4306.15,3939.49,4251.79,4613.85,4371.28,4646.15,1694,1712,5.535,0,0,0,0,
89,4052.31,4151.79,4085.13,3858.97,4477.95,4185.64,4582.05,4550.26,4310.77,3942.56,4244.1,4612.31,4368.21,4648.21,1694,1711,5.543,0,0,0,0,
90,4056.92,4152.82,4088.21,3852.82,4483.59,4186.67,4584.62,4551.28,4311.28,3938.46,4249.74,4613.33,4370.26,4642.56,1695,1714,5.551,0,0,0,0,
91,4071.28,4156.41,4092.31,3856.41,4491.79,4190.77,4589.23,4552.82,4308.72,3941.54,4263.08,4621.03,4377.95,4650.77,1695,1712,5.559,0,0,0,0,
92,4076.92,4155.9,4092.82,3867.69,4484.62,4194.36,4588.21,4552.31,4311.79,3946.15,4266.67,4625.64,4381.54,4660,1695,1712,5.567,0,0,0,0,
93,4065.13,4151.28,4091.28,3862.56,4472.82,4190.77,4589.23,4554.87,4317.95,3944.1,4255.9,4618.46,4381.54,4651.79,1696,1709,5.575,0,0,0,0,
94,4051.79,4144.62,4089.74,3847.18,4473.33,4191.79,4598.46,4560.51,4316.41,3940.51,4248.21,4613.33,4375.38,4641.03,1694,1707,5.582,0,0,0,0,
95,4057.95,4135.38,4088.21,3843.08,4475.38,4197.95,4596.92,4556.41,4303.59,3935.38,4247.69,4615.38,4371.28,4640.51,1694,1707,5.59,0,0,0,0,
96,4069.23,4138.97,4089.74,3852.82,4474.87,4192.82,4584.62,4540,4292.31,3937.95,4253.33,4618.46,4381.03,4645.64,1694,1707,5.598,0,0,0,0,
97,4067.18,4151.28,4093.85,3863.59,4481.03,4185.13,4582.05,4537.44,4296.41,3955.38,4265.13,4622.05,4382.05,4651.79,1693,1709,5.606,0,0,0,0,
98,4061.54,4149.23,4091.79,3862.05,4492.31,4186.67,4586.67,4550.26,4308.72,3957.44,4267.69,4620.51,4374.87,4649.74,1693,1710,5.614,0,0,0,0,
99,4062.05,4140,4083.59,3857.95,4506.15,4186.67,4584.1,4554.36,4311.28,3939.49,4254.87,4610.77,4380.51,4636.92,1693,1711,5.621,0,0,0,0,
100,4062.05,4146.15,4080.51,3860.51,4520,4186.15,4583.59,4550.26,4307.69,3936.41,4252.31,4608.72,4384.62,4631.28,1693,1711,5.629,0,0,0,0,
101,4060.51,4153.85,4081.54,3864.62,4525.64,4189.74,4587.69,4552.82,4307.18,3945.64,4262.56,4610.26,4384.62,4637.44,1694,1711,5.637,0,0,0,0,
102,4055.9,4149.23,4081.54,3863.08,4529.74,4189.23,4586.15,4557.44,4310.77,3943.59,4264.1,4609.23,4390.77,4645.64,1693,1711,5.645,0,0,0,0,
103,4053.85,4151.79,4087.18,3863.08,4536.92,4191.28,4585.64,4556.41,4315.9,3943.08,4261.54,4614.87,4390.26,4648.21,1693,1712,5.653,0,0,0,0,
104,4064.1,4157.44,4091.79,3866.67,4540.51,4198.97,4588.72,4553.85,4319.49,3947.69,4260.51,4617.95,4386.67,4642.05,1692,1711,5.661,0,0,0,0,
105,4065.64,4145.64,4084.1,3861.03,4545.13,4199.49,4591.79,4560.51,4321.54,3946.15,4254.87,4611.28,4387.18,4634.36,1693,1709,5.668,0,0,0,0,
106,4051.28,4135.38,4078.46,3848.21,4552.31,4198.46,4596.92,4567.18,4320,3942.05,4248.21,4605.64,4374.36,4629.23,1693,1707,5.676,0,0,0,0,
107,4041.54,4137.95,4081.54,3845.13,4557.44,4203.59,4598.97,4556.41,4311.28,3936.41,4249.23,4603.08,4359.49,4620.51,1693,1707,5.684,0,0,0,0,
108,4043.08,4137.95,4078.97,3851.79,4558.97,4207.18,4591.79,4550.77,4309.23,3934.87,4251.79,4603.59,4366.15,4614.36,1692,1707,5.692,0,0,0,0,
109,4049.74,4142.05,4075.38,3857.95,4559.49,4200.51,4586.67,4554.87,4310.77,3940.51,4251.79,4605.13,4376.41,4617.95,1692,1709,5.7,0,0,0,0,
110,4062.05,4153.85,4080.51,3861.03,4561.54,4189.74,4585.64,4544.1,4302.05,3944.1,4247.69,4606.67,4376.92,4629.74,1693,1708,5.708,0,0,0,0,
111,4068.21,4152.31,4084.62,3862.05,4567.18,4184.62,4584.1,4537.95,4299.49,3940,4252.31,4612.31,4372.31,4637.95,1692,1711,5.715,0,0,0,0,
112,4059.49,4140,4081.03,3861.03,4569.74,4187.69,4587.18,4551.28,4309.74,3932.31,4261.03,4617.44,4365.64,4635.9,1694,1710,5.723,0,0,0,0,
113,4053.85,4133.85,4080.51,3861.03,4567.69,4188.21,4590.77,4556.41,4311.28,3927.69,4253.85,4617.44,4372.31,4635.38,1693,1710,5.731,0,0,0,0,
114,4062.05,4134.36,4086.15,3858.97,4570.26,4185.13,4587.18,4552.82,4307.18,3930.77,4247.69,4621.54,4382.05,4650.77,1695,1711,5.739,0,0,0,0,
115,4085.13,4146.67,4094.87,3858.97,4580,4185.64,4585.13,4552.82,4309.74,3940,4265.13,4632.31,4370.26,4671.28,1694,1711,5.747,0,0,0,0,
116,4115.38,4166.15,4106.67,3870.26,4587.18,4185.13,4586.67,4546.67,4306.15,3943.08,4277.44,4640,4365.64,4689.74,1695,1712,5.754,0,0,0,0,
117,4138.46,4177.95,4111.79,3878.97,4580,4183.59,4584.1,4540,4288.72,3929.23,4261.03,4637.95,4387.69,4702.56,1696,1711,5.762,0,0,0,0,
118,4150.26,4185.64,4111.79,3875.9,4569.23,4185.64,4584.62,4539.49,4282.05,3913.85,4252.31,4633.85,4388.21,4704.62,1696,1711,5.77,0,0,0,0,
119,4166.15,4201.03,4117.44,3881.03,4576.92,4185.64,4585.64,4535.9,4288.72,3917.44,4261.54,4636.41,4364.62,4702.56,1697,1709,5.778,0,0,0,0,
120,4182.56,4213.85,4124.1,3894.87,4584.1,4183.59,4579.49,4534.36,4286.15,3926.15,4260,4640,4365.13,4709.23,1698,1709,5.786,0,0,0,0,
121,4185.13,4223.59,4124.1,3897.44,4567.18,4184.1,4571.79,4534.36,4281.03,3927.18,4248.72,4632.82,4372.31,4707.69,1699,1705,5.793,0,0,0,0,
122,4189.74,4238.46,4122.56,3898.46,4551.79,4186.15,4570.77,4525.13,4277.95,3916.41,4237.95,4621.54,4352.82,4691.28,1698,1705,5.801,0,0,0,0,
123,4205.13,4248.21,4121.03,3909.23,4554.87,4186.15,4568.72,4514.87,4264.62,3898.46,4232.31,4615.38,4332.31,4677.44,1700,1705,5.809,0,0,0,0,
124,4207.18,4249.74,4121.03,3912.82,4551.28,4180.51,4565.64,4518.46,4263.59,3898.46,4234.87,4615.38,4334.87,4673.85,1699,1706,5.817,0,0,0,0,
125,4193.33,4249.74,4123.59,3910.26,4538.46,4175.38,4569.74,4526.15,4280.51,3912.82,4235.38,4618.46,4337.95,4666.67,1700,1708,5.825,0,0,0,0,
126,4181.03,4250.26,4122.05,3911.79,4542.56,4178.46,4573.33,4523.59,4278.97,3908.72,4232.31,4612.31,4325.64,4652.82,1700,1708,5.833,0,0,0,0,
127,4175.9,4247.69,4115.9,3909.74,4549.23,4184.1,4570.26,4517.95,4267.69,3902.05,4239.49,4606.15,4321.54,4644.1,1699,1709,5.84,0,0,0,0,
128,4168.72,4246.15,4111.79,3908.21,4542.56,4184.62,4569.23,4524.1,4277.44,3912.82,4243.08,4607.69,4340.51,4640.51,1699,1709,5.848,0,0,0,0,
0,4161.54,4248.72,4108.72,3912.82,4543.59,4185.13,4572.82,4534.87,4290.26,3912.82,4230.26,4605.64,4352.31,4633.33,1699,1711,5.856,0,0,0,0,
1,4151.79,4247.69,4108.21,3911.79,4553.33,4185.64,4575.9,4538.46,4293.33,3908.21,4227.18,4601.03,4340.51,4623.08,1699,1711,5.864,0,0,0,0,
2,4135.9,4238.97,4107.69,3902.56,4554.36,4194.36,4579.49,4536.41,4294.87,3922.05,4235.9,4602.05,4330.77,4617.44,1698,1712,5.872,0,0,0,0,
3,4122.56,4229.74,4104.1,3894.87,4549.23,4201.03,4581.54,4537.44,4292.31,3928.72,4235.38,4603.59,4333.33,4615.9,1699,1710,5.88,0,0,0,0,
4,4122.05,4230.26,4103.08,3895.38,4542.05,4193.85,4582.05,4543.59,4295.38,3921.03,4231.79,4602.05,4333.33,4611.79,1699,1710,5.887,0,0,0,0,
5,4126.15,4232.31,4105.64,3899.49,4536.41,4191.79,4584.62,4551.79,4306.15,3925.13,4234.87,4604.1,4332.31,4612.31,1700,1710,5.895,0,0,0,0,
6,4123.59,4222.05,4101.03,3893.85,4539.49,4200,4588.21,4553.85,4303.59,3932.31,4237.95,4603.59,4334.87,4617.44,1700,1709,5.903,0,0,0,0,
7,4114.87,4212.31,4092.31,3884.62,4542.05,4202.56,4585.64,4551.79,4291.79,3926.15,4235.9,4600.51,4328.72,4613.33,1701,1711,5.911,0,0,0,0,
8,4105.13,4213.33,4091.79,3887.18,4538.97,4195.9,4583.59,4552.31,4294.36,3924.1,4232.31,4599.49,4323.08,4601.54,1701,1710,5.919,0,0,0,0,
9,4103.59,4217.44,4095.38,3894.87,4539.49,4191.79,4584.62,4555.38,4307.69,3930.26,4234.87,4600.51,4333.33,4605.64,1701,1711,5.926,0,0,0,0,
10,4111.28,4218.46,4097.95,3895.9,4540,4191.79,4585.64,4560.51,4310.26,3924.1,4236.92,4602.05,4342.05,4615.9,1702,1711,5.934,0,0,0,0,
11,4113.33,4217.44,4100,3890.77,4536.92,4196.41,4588.21,4566.67,4307.69,3918.97,4232.82,4602.56,4336.92,4610.26,1701,1711,5.942,0,0,0,0,
12,4106.15,4215.9,4097.95,3883.59,4536.92,4200,4594.36,4570.26,4311.28,3931.79,4229.74,4602.56,4335.9,4596.92,1703,1711,5.95,0,0,0,0,
13,4098.97,4212.82,4092.82,3878.97,4538.97,4198.97,4597.44,4570.26,4315.9,3937.44,4231.79,4600.51,4335.38,4596.41,1703,1712,5.958,0,0,0,0,
14,4098.46,4206.67,4089.23,3881.54,4541.54,4198.97,4591.79,4563.08,4316.92,3929.23,4235.38,4597.95,4325.13,4602.56,1705,1710,5.966,0,0,0,0,
15,4096.92,4201.03,4089.74,3886.15,4548.72,4196.92,4586.15,4554.87,4312.31,3926.67,4232.82,4598.46,4324.62,4601.03,1703,1710,5.973,0,0,0,0,
16,4094.87,4198.97,4091.79,3881.54,4554.36,4197.95,4586.67,4553.33,4308.72,3926.67,4226.67,4597.95,4333.85,4600,1706,1710,5.981,0,0,0,0,
17,4100.51,4203.08,4089.74,3875.9,4554.87,4202.56,4588.72,4558.97,4313.33,3926.67,4235.9,4600.51,4332.31,4599.49,1705,1709,5.989,0,0,0,0,
18,4107.18,4213.33,4093.85,3885.13,4555.9,4196.92,4586.67,4554.87,4315.9,3934.36,4251.28,4609.23,4332.31,4602.05,1705,1711,5.997,0,0,0,0,
19,4108.72,4220,4101.03,3894.36,4556.41,4188.72,4581.03,4541.03,4305.64,3934.87,4244.1,4610.26,4343.59,4609.74,1705,1710,6.005,0,0,0,0,
20,4104.62,4212.31,4098.46,3885.64,4551.79,4193.85,4580.51,4540.51,4298.46,3926.67,4228.21,4602.05,4343.08,4610.77,1705,1710,6.012,0,0,0,0,
21,4094.36,4198.46,4091.79,3882.56,4549.23,4198.97,4583.59,4549.74,4304.62,3926.15,4230.26,4598.46,4328.72,4601.03,1705,1709,6.02,0,0,0,0,
22,4083.59,4196.92,4087.18,3889.74,4550.26,4190.26,4581.03,4544.62,4304.1,3921.54,4233.85,4594.36,4318.46,4590.77,1705,1709,6.028,0,0,0,0,
23,4080,4200.51,4084.62,3882.56,4544.1,4183.08,4573.33,4532.31,4287.69,3909.23,4220.51,4586.67,4314.36,4586.67,1705,1709,6.036,0,0,0,0,
24,4082.56,4198.97,4081.03,3873.85,4540.51,4191.79,4571.28,4532.82,4279.49,3909.74,4211.28,4585.64,4314.36,4586.15,1705,1710,6.044,0,0,0,0,
25,4084.1,4197.95,4081.03,3876.92,4550.26,4197.95,4573.85,4536.92,4288.72,3912.82,4218.97,4588.72,4314.87,4587.69,1705,1710,6.052,0,0,0,0,
26,4083.08,4200.51,4085.64,3878.46,4552.31,4192.82,4574.36,4536.92,4295.38,3907.69,4228.21,4587.69,4312.31,4585.64,1705,1712,6.059,0,0,0,0,
27,4077.44,4199.49,4088.21,3878.97,4538.97,4186.67,4572.82,4537.95,4288.21,3907.18,4230.26,4587.18,4320,4591.79,1704,1711,6.067,0,0,0,0,
28,4073.33,4196.41,4087.69,3882.05,4535.9,4185.64,4572.82,4535.9,4277.95,3912.31,4226.15,4589.23,4330.26,4602.05,1703,1710,6.075,0,0,0,0,
29,4073.85,4200,4081.03,3879.49,4541.54,4191.79,4576.92,4534.36,4281.03,3913.33,4217.95,4588.21,4326.15,4594.36,1702,1709,6.083,0,0,0,0,
30,4075.38,4200.51,4078.46,3879.49,4540.51,4200.51,4584.1,4545.64,4291.28,3914.36,4220,4583.08,4321.03,4583.08,1701,1709,6.091,0,0,0,0,
31,4082.05,4198.46,4084.62,3884.1,4538.46,4202.05,4587.69,4553.85,4296.41,3925.13,4230.77,4586.15,4335.38,4591.79,1701,1709,6.098,0,0,0,0,
32,4100.51,4210.77,4094.36,3884.62,4539.49,4192.31,4581.54,4545.64,4295.38,3932.31,4237.44,4593.85,4348.72,4608.72,1700,1709,6.106,0,0,0,0,
33,4106.67,4218.46,4093.33,3883.59,4543.08,4185.64,4573.33,4536.92,4288.72,3920.51,4233.33,4592.31,4335.9,4604.62,1701,1709,6.114,0,0,0,0,
34,4087.69,4203.59,4083.08,3880,4551.79,4188.72,4571.28,4529.74,4277.95,3906.67,4223.59,4583.59,4321.03,4587.69,1699,1710,6.121,0,0,0,0,
35,4081.54,4201.54,4083.59,3877.95,4556.41,4187.69,4571.28,4520.51,4273.33,3906.67,4223.08,4583.59,4327.18,4588.21,1700,1710,6.13,0,0,0,0,
36,4094.87,4216.92,4092.82,3887.69,4559.49,4185.13,4571.28,4525.64,4280,3910.77,4232.82,4590.77,4339.49,4602.05,1699,1710,6.138,0,0,0,0,
37,4097.44,4218.46,4093.33,3894.36,4565.64,4192.82,4577.95,4537.44,4283.08,3910.77,4234.87,4596.41,4341.03,4602.56,1698,1713,6.145,0,0,0,0,
38,4097.95,4211.79,4091.28,3890.77,4562.05,4201.03,4587.69,4537.95,4280.51,3911.28,4229.23,4599.49,4332.31,4597.44,1698,1712,6.153,0,0,0,0,
39,4108.72,4209.74,4094.87,3891.28,4560,4198.97,4587.69,4538.46,4286.15,3911.28,4231.79,4601.54,4332.31,4601.03,1697,1713,6.161,0,0,0,0,
40,4104.62,4202.56,4094.87,3890.77,4568.21,4198.46,4586.67,4547.69,4295.9,3912.82,4235.9,4601.54,4346.15,4605.64,1697,1713,6.169,0,0,0,0,
41,4090.77,4198.97,4093.33,3880,4564.62,4201.54,4593.33,4554.36,4299.49,3915.38,4235.38,4601.54,4348.21,4604.1,1696,1712,6.177,0,0,0,0,
42,4091.28,4205.13,4097.95,3879.49,4552.31,4198.46,4592.82,4553.33,4293.85,3912.31,4233.85,4601.03,4332.31,4596.41,1696,1710,6.184,0,0,0,0,
43,4093.85,4204.1,4095.38,3883.08,4552.31,4195.9,4587.18,4550.77,4292.82,3908.72,4228.21,4594.87,4327.18,4586.15,1695,1711,6.192,0,0,0,0,
44,4088.72,4195.9,4087.69,3874.36,4555.9,4197.95,4590.77,4555.9,4301.03,3908.72,4227.18,4587.69,4335.38,4589.23,1696,1711,6.2,0,0,0,0,
45,4086.67,4198.97,4089.23,3880.51,4552.31,4193.85,4593.33,4554.87,4303.08,3910.77,4233.33,4592.82,4338.97,4601.03,1694,1711,6.208,0,0,0,0,
46,4092.31,4207.69,4096.41,3897.95,4553.33,4185.13,4584.62,4539.49,4290.77,3910.26,4233.85,4601.03,4337.44,4606.15,1696,1710,6.216,0,0,0,0,
47,4097.44,4207.18,4095.9,3892.82,4558.46,4186.15,4579.49,4531.79,4284.1,3906.67,4230.77,4601.54,4338.97,4604.62,1695,1708,6.224,0,0,0,0,
48,4097.95,4201.03,4092.31,3875.38,4556.92,4193.33,4582.56,4538.46,4291.79,3911.28,4236.41,4599.49,4339.49,4603.08,1695,1709,6.231,0,0,0,0,
49,4101.54,4199.49,4091.79,3875.9,4554.87,4191.79,4585.13,4543.59,4299.49,3925.64,4247.69,4601.54,4338.46,4608.21,1696,1708,6.239,0,0,0,0,
50,4106.15,4206.67,4093.85,3888.21,4556.92,4185.64,4582.56,4539.49,4296.92,3926.67,4248.72,4602.05,4343.08,4617.44,1695,1710,6.247,0,0,0,0,
51,4106.67,4215.9,4098.46,3894.87,4556.92,4183.08,4575.9,4536.92,4291.28,3917.95,4243.08,4603.08,4353.85,4618.46,1696,1710,6.255,0,0,0,0,
52,4106.15,4217.95,4105.13,3897.95,4555.9,4185.13,4578.97,4545.13,4300,3923.59,4247.69,4608.72,4360.51,4616.92,1695,1711,6.263,0,0,0,0,
53,4106.67,4214.87,4105.64,3893.85,4562.56,4193.33,4589.23,4548.21,4306.67,3932.31,4253.85,4608.21,4355.38,4617.44,1696,1710,6.27,0,0,0,0,
54,4102.05,4213.33,4098.46,3890.77,4570.26,4196.92,4585.13,4538.46,4297.95,3922.05,4243.59,4601.03,4351.79,4616.41,1696,1708,6.278,0,0,0,0,
55,4093.85,4208.72,4091.79,3891.79,4569.74,4193.85,4576.92,4535.9,4294.87,3914.87,4236.92,4598.97,4351.79,4610.77,1697,1707,6.286,0,0,0,0,
56,4090.77,4201.03,4087.69,3885.13,4566.15,4195.38,4583.08,4543.08,4301.54,3922.05,4244.62,4600,4348.72,4603.08,1695,1706,6.294,0,0,0,0,
57,4090.77,4206.15,4086.67,3883.08,4565.64,4194.36,4582.05,4542.56,4300,3927.69,4248.21,4599.49,4348.21,4606.15,1696,1706,6.302,0,0,0,0,
58,4091.28,4213.33,4091.28,3891.79,4570.26,4186.15,4569.23,4537.44,4295.9,3926.67,4244.62,4602.56,4352.82,4616.92,1695,1705,6.31,0,0,0,0,
59,4089.74,4208.21,4092.82,3894.36,4568.72,4185.64,4573.33,4537.95,4296.92,3923.59,4245.64,4606.67,4352.82,4614.87,1694,1708,6.317,0,0,0,0,
60,4086.67,4200.51,4090.77,3889.74,4560,4187.69,4581.54,4538.97,4295.9,3925.64,4250.26,4610.77,4351.28,4611.79,1694,1707,6.325,0,0,0,0,
61,4087.69,4201.03,4090.77,3891.28,4559.49,4190.77,4578.46,4538.97,4296.92,3929.23,4249.74,4612.31,4351.28,4617.44,1692,1710,6.333,0,0,0,0,
62,4091.79,4204.1,4090.26,3893.85,4566.67,4198.97,4578.97,4538.97,4296.92,3924.62,4241.03,4604.62,4347.69,4611.79,1692,1710,6.341,0,0,0,0,
63,4092.31,4201.03,4087.69,3894.36,4566.67,4194.87,4583.08,4537.44,4292.82,3921.03,4232.31,4598.46,4346.67,4597.44,1690,1711,6.349,0,0,0,0,
64,4088.21,4199.49,4087.18,3893.85,4558.97,4182.05,4580,4537.44,4297.44,3925.13,4232.31,4600.51,4349.23,4595.38,1691,1712,6.357,0,0,0,0,
65,4085.13,4200.51,4088.72,3884.1,4554.87,4188.72,4583.08,4542.05,4306.67,3923.08,4235.9,4601.03,4344.1,4602.05,1689,1711,6.364,0,0,0,0,
66,4085.13,4200,4082.56,3877.95,4554.87,4197.95,4584.62,4538.97,4298.46,3911.79,4233.33,4593.85,4340,4599.49,1689,1712,6.372,0,0,0,0,
67,4077.95,4198.97,4075.9,3880,4556.92,4191.79,4575.38,4529.74,4284.62,3905.13,4229.74,4584.62,4342.05,4591.28,1688,1711,6.38,0,0,0,0,
68,4072.82,4198.46,4082.05,3878.97,4557.44,4183.59,4569.23,4531.79,4289.23,3911.79,4231.28,4585.64,4338.46,4592.82,1688,1710,6.388,0,0,0,0,
69,4084.62,4201.54,4088.21,3878.97,4555.38,4183.08,4572.31,4537.44,4294.36,3921.03,4234.87,4592.31,4333.85,4596.41,1687,1708,6.396,0,0,0,0,
70,4080.51,4197.44,4080.51,3879.49,4556.41,4193.33,4581.03,4538.46,4292.82,3923.59,4230.26,4587.18,4332.82,4587.18,1687,1707,6.403,0,0,0,0,
71,4057.44,4187.69,4072.31,3877.44,4557.44,4202.56,4583.08,4541.54,4299.49,3921.54,4227.69,4578.97,4336.92,4582.05,1688,1705,6.41,0,0,0,0,
72,4070.77,4191.28,4080.51,3880,4556.92,4194.36,4573.85,4536.92,4300.51,3923.08,4242.05,4588.21,4345.64,4595.38,1685,1707,6.419,0,0,0,0,
73,4099.49,4202.05,4089.23,3883.59,4554.36,4181.54,4567.18,4528.21,4289.74,3925.64,4244.62,4595.38,4350.77,4603.08,1687,1707,6.427,0,0,0,0,
74,4088.72,4198.97,4085.13,3880,4553.33,4182.05,4571.28,4532.31,4290.26,3922.05,4229.23,4587.69,4344.62,4597.44,1685,1708,6.435,0,0,0,0,
75,4075.9,4194.87,4080.51,3877.95,4553.85,4186.15,4571.28,4537.44,4297.44,3921.54,4234.87,4590.26,4331.79,4595.38,1686,1709,6.443,0,0,0,0,
76,4089.74,4203.08,4084.62,3880,4553.33,4184.1,4568.21,4535.38,4296.41,3925.13,4251.28,4603.08,4334.36,4598.46,1685,1710,6.449,0,0,0,0,
77,4090.26,4198.46,4086.15,3878.97,4553.33,4183.59,4570.77,4538.46,4295.9,3925.64,4246.15,4600.51,4350.26,4603.59,1686,1712,6.459,0,0,0,0,
78,4071.28,4184.62,4078.97,3875.38,4552.82,4183.59,4571.28,4542.05,4303.59,3927.69,4238.97,4594.36,4351.28,4606.67,1687,1711,6.465,0,0,0,0,
79,4066.15,4185.13,4080.51,3876.92,4552.31,4184.62,4574.36,4540,4307.18,3930.26,4247.69,4601.03,4344.1,4604.1,1688,1712,6.474,0,0,0,0,
80,4077.95,4189.74,4084.62,3881.54,4553.33,4188.21,4576.92,4541.03,4301.03,3927.18,4245.64,4601.03,4347.69,4601.03,1689,1712,6.482,0,0,0,0,
81,4088.72,4189.74,4082.56,3883.08,4555.9,4187.18,4574.36,4541.54,4299.49,3924.1,4234.36,4596.92,4350.77,4600.51,1690,1713,6.489,0,0,0,0,
82,4084.62,4189.23,4081.03,3878.97,4549.23,4184.1,4573.33,4539.49,4307.18,3927.69,4233.33,4599.49,4339.49,4594.87,1692,1713,6.497,0,0,0,0,
83,4079.49,4189.74,4078.46,3876.41,4540,4184.62,4573.33,4537.95,4306.15,3926.67,4232.31,4594.36,4334.36,4586.15,1692,1712,6.505,0,0,0,0,
84,4084.1,4187.69,4076.92,3876.41,4543.08,4186.67,4569.74,4535.9,4294.87,3923.59,4229.74,4585.13,4342.56,4585.13,1692,1711,6.513,0,0,0,0,
85,4076.92,4187.18,4078.46,3877.44,4544.62,4186.67,4572.31,4535.38,4293.85,3923.59,4234.36,4586.15,4344.1,4589.23,1693,1711,6.521,0,0,0,0,
86,4059.49,4186.67,4073.85,3877.44,4544.1,4187.18,4581.03,4541.03,4302.56,3927.69,4236.92,4587.69,4332.82,4587.18,1692,1710,6.529,0,0,0,0,
87,4056.41,4177.44,4066.15,3870.77,4549.74,4192.82,4577.44,4537.95,4302.05,3927.18,4232.82,4584.1,4329.23,4583.08,1693,1710,6.536,0,0,0,0,
88,4068.72,4172.82,4065.64,3862.56,4549.23,4196.92,4571.79,4526.67,4292.31,3918.46,4232.82,4581.54,4338.97,4583.08,1693,1711,6.544,0,0,0,0,
89,4077.95,4182.05,4066.15,3863.59,4539.49,4190.77,4573.33,4527.69,4290.26,3917.44,4234.36,4581.54,4344.1,4584.1,1692,1712,6.552,0,0,0,0,
90,4075.9,4184.1,4066.67,3871.79,4538.97,4182.56,4571.79,4537.44,4298.97,3925.13,4230.77,4582.05,4340.51,4582.56,1694,1710,6.56,0,0,0,0,
91,4070.77,4184.62,4073.85,3879.49,4542.56,4184.62,4574.36,4539.49,4307.69,3928.72,4238.46,4585.64,4336.92,4585.64,1692,1711,6.568,0,0,0,0,
92,4078.97,4198.46,4081.54,3883.59,4538.46,4188.72,4582.05,4538.46,4308.72,3931.79,4248.72,4589.74,4346.15,4594.87,1694,1711,6.574,0,0,0,0,
93,4085.64,4196.41,4078.46,3876.92,4538.97,4186.15,4577.44,4539.49,4305.13,3934.36,4241.03,4590.26,4353.85,4595.38,1692,1711,6.583,0,0,0,0,
94,4075.9,4177.95,4072.82,3869.23,4540,4185.13,4569.74,4538.97,4305.64,3934.87,4235.9,4591.28,4342.05,4590.26,1692,1711,6.59,0,0,0,0,
95,4078.97,4183.08,4074.87,3875.9,4537.95,4186.67,4576.92,4539.49,4311.28,3943.59,4248.72,4597.44,4342.56,4597.95,1692,1710,6.599,0,0,0,0,
96,4090.77,4193.33,4080.51,3882.56,4538.46,4189.74,4583.08,4542.05,4307.69,3948.72,4252.82,4603.59,4354.87,4606.15,1692,1708,6.607,0,0,0,0,
97,4083.08,4185.64,4077.95,3875.38,4540.51,4198.46,4585.64,4541.54,4301.54,3933.33,4236.92,4600.51,4345.64,4597.44,1692,1707,6.615,0,0,0,0,
98,4080.51,4184.1,4075.9,3872.31,4540,4201.03,4586.15,4542.56,4302.05,3921.54,4227.69,4590.26,4336.92,4591.79,1693,1707,6.621,0,0,0,0,
99,4092.31,4189.23,4079.49,3880,4536.92,4189.74,4577.44,4538.97,4300,3923.08,4232.31,4586.15,4343.08,4597.95,1693,1706,6.636,0,0,0,0,
100,4086.67,4185.64,4078.46,3881.03,4536.41,4184.62,4574.36,4538.46,4298.97,3923.59,4234.36,4590.77,4338.46,4594.87,1692,1709,6.637,0,0,0,0,
101,4077.95,4182.05,4073.33,3875.38,4538.97,4189.74,4583.59,4547.18,4309.23,3925.64,4233.85,4594.36,4333.85,4587.18,1694,1708,6.646,0,0,0,0,
102,4088.21,4184.62,4076.41,3874.87,4541.54,4188.72,4587.69,4556.92,4320.51,3936.92,4242.05,4597.44,4340,4587.18,1693,1710,6.654,0,0,0,0,
103,4090.77,4187.18,4086.15,3879.49,4538.97,4188.72,4585.13,4555.38,4322.05,3944.1,4250.77,4602.05,4344.1,4586.67,1694,1711,6.662,0,0,0,0,
104,4085.64,4186.15,4086.67,3876.41,4536.41,4198.46,4582.05,4545.13,4316.92,3943.59,4246.15,4602.05,4345.13,4585.64,1693,1711,6.669,0,0,0,0,
105,4087.18,4185.64,4079.49,3871.79,4535.9,4197.95,4577.44,4538.97,4310.77,3944.1,4248.21,4597.95,4334.36,4590.77,1693,1713,6.677,0,0,0,0,
106,4086.67,4185.64,4080,3873.85,4534.36,4190.77,4576.92,4540,4304.1,3935.9,4251.79,4597.44,4325.64,4590.77,1693,1711,6.685,0,0,0,0,
107,4081.03,4186.15,4085.13,3877.95,4534.36,4194.87,4582.05,4541.03,4298.46,3925.13,4238.97,4595.9,4342.05,4585.64,1693,1712,6.693,0,0,0,0,
108,4080.51,4186.15,4083.59,3878.46,4538.46,4201.54,4584.62,4538.97,4295.38,3934.87,4234.36,4593.33,4349.23,4584.62,1693,1710,6.701,0,0,0,0,
109,4083.08,4184.62,4081.54,3871.28,4537.95,4198.97,4586.15,4537.95,4295.9,3945.13,4248.72,4597.95,4336.41,4585.13,1693,1710,6.708,0,0,0,0,
110,4083.59,4182.05,4083.59,3867.18,4529.23,4196.41,4586.15,4538.46,4295.9,3929.74,4250.77,4601.03,4337.44,4584.62,1694,1709,6.716,0,0,0,0,
111,4082.56,4182.05,4084.1,3876.41,4523.08,4198.97,4584.62,4536.41,4295.9,3919.49,4241.54,4593.85,4348.21,4588.21,1694,1710,6.724,0,0,0,0,
112,4082.56,4188.21,4084.1,3884.1,4524.1,4198.46,4584.1,4534.36,4292.82,3929.23,4242.56,4588.72,4352.31,4590.77,1695,1710,6.732,0,0,0,0,
113,4088.72,4194.36,4085.13,3879.49,4526.67,4196.92,4582.56,4534.87,4295.38,3932.82,4248.21,4594.36,4355.38,4588.21,1693,1711,6.74,0,0,0,0,
114,4088.21,4192.31,4084.1,3876.41,4526.15,4200,4581.54,4538.97,4307.69,3929.74,4249.23,4596.92,4352.31,4587.18,1695,1711,6.748,0,0,0,0,
115,4073.33,4186.15,4082.56,3877.95,4523.59,4197.95,4583.08,4540,4310.26,3929.74,4249.23,4588.72,4341.03,4586.67,1694,1710,6.755,0,0,0,0,
116,4070.26,4182.56,4080,3874.87,4523.08,4187.69,4583.59,4537.95,4300.51,3928.72,4245.13,4583.08,4337.44,4583.59,1694,1713,6.763,0,0,0,0,
117,4086.15,4184.62,4076.92,3875.9,4521.03,4186.15,4583.59,4537.44,4296.41,3925.64,4242.05,4586.67,4344.1,4589.74,1695,1712,6.771,0,0,0,0,
118,4089.74,4187.18,4079.49,3881.03,4517.95,4196.92,4584.62,4537.44,4296.92,3924.62,4248.21,4594.36,4347.69,4599.49,1695,1713,6.779,0,0,0,0,
119,4078.46,4185.64,4083.08,3881.03,4519.49,4202.05,4585.64,4539.49,4295.38,3930.26,4252.31,4600,4350.77,4598.97,1696,1712,6.787,0,0,0,0,
120,4078.97,4189.74,4085.13,3880,4523.08,4198.46,4586.67,4541.03,4297.95,3940,4250.77,4599.49,4360.51,4600.51,1695,1712,6.794,0,0,0,0,
121,4091.79,4197.95,4088.72,3880.51,4522.05,4196.92,4586.15,4538.46,4302.56,3941.54,4256.41,4598.97,4366.67,4607.18,1696,1710,6.802,0,0,0,0,
122,4100.51,4202.05,4091.28,3888.21,4519.49,4197.44,4582.05,4546.67,4311.28,3943.08,4267.18,4602.56,4367.69,4607.69,1695,1710,6.81,0,0,0,0,
123,4096.92,4196.41,4088.21,3882.05,4521.54,4197.95,4578.97,4554.36,4318.46,3947.18,4257.95,4601.03,4368.21,4600.51,1694,1708,6.818,0,0,0,0,
124,4086.67,4187.18,4084.62,3834.87,4521.03,4198.97,4581.03,4544.1,4308.21,3938.97,4246.15,4595.9,4353.33,4595.38,1692,1707,6.826,0,0,0,0,
125,4084.62,4187.18,4083.08,3789.23,4512.31,4195.9,4580.51,4534.87,4293.85,3929.74,4256.41,4596.41,4343.08,4596.92,1692,1704,6.834,0,0,0,0,
126,4090.77,4196.41,4079.49,3784.1,4507.18,4187.69,4573.33,4538.97,4297.44,3933.33,4262.05,4600.51,4358.46,4602.05,1688,1701,6.841,0,0,0,0,
127,4091.28,4202.56,4075.38,3786.15,4508.72,4182.56,4568.72,4541.03,4308.72,3938.97,4260.51,4601.54,4363.08,4607.18,1687,1701,6.849,0,0,0,0,
